scanname 扫描019
timestamp 1/1/1970 01:11
scancount 1
laserwavenum 850.5
measurementstate Unknown
scanmode Identification
snr 5.64604 5.64604 5.64604
replacelist 0
peaks 13
698.259 0.211177 0 2.59498 0.000939888
757.29 0.114903 0 1.17912 0.00023678
908.665 0.0497705 0 1.85156 9.06484e-05
966.262 0.0633678 0 5.81196 0.000151956
1026.65 0.0568587 0 3.37088 8.39067e-05
1373.69 0.0643578 0 4.29613 0.000170358
1451.99 0.121616 0 8.20779 0.000344057
1492.07 0.0612167 0 6.54206 0.000258572
1600.7 0.0366771 0 1.56113 8.92978e-05
2849.72 0.140419 0 9.00758 0.000400673
2917.2 0.203424 0 7.01582 0.000399918
2945.36 0.0889529 0 0.800348 7.6887e-05
3025.57 0.0368183 0 1.29978 9.52734e-05
finalresult Mixture 2A1	0.240898
A1655	0.49814
spectrum 2048
0 5.09503
2.86447 1.68063
5.72895 -1.33928
8.59342 -2.17329
11.4579 -3.22591
14.3224 -0.903458
17.1868 0.128597
20.0513 2.14711
22.9158 4.75302
25.7803 6.28402
28.6447 0.980729
31.5092 -1.5594
34.3737 1.93536
37.2382 3.88392
40.1026 -0.117897
42.9671 -4.42165
45.8316 -3.74897
48.696 -0.924544
51.5605 0.517113
54.425 2.79689
57.2895 2.27784
60.1539 0.928715
63.0184 1.82019
65.8829 2.00996
68.7474 0.930364
71.6118 4.95939
74.4763 -0.432492
77.3408 0.590859
80.2053 1.43441
83.0697 4.13439
85.9342 0.731735
88.7987 2.85033
91.6632 -0.155399
94.5276 3.296
97.3921 -0.989866
100.257 -2.60959
103.121 -1.0011
105.986 2.81969
108.85 2.64685
111.714 9.4941
114.579 -1.66671
117.443 -3.57089
120.308 1.1111
123.172 3.4338
126.037 -0.462945
128.901 0.500577
131.766 4.5974
134.63 3.30855
137.495 4.51262
140.359 -0.267053
143.224 -2.66165
146.088 -2.57072
148.953 0.567158
151.817 0.941317
154.682 1.81117
157.546 4.13472
160.411 0.573901
163.275 -0.86064
166.139 2.39547
169.004 -1.34032
171.868 5.12758
174.733 2.06767
177.597 3.14152
180.462 6.86801
183.326 10.5869
186.191 5.54092
189.055 2.23941
191.92 5.75274
194.784 3.33734
197.649 1.07459
200.513 1.92426
203.378 1.6636
206.242 0.631359
209.107 -0.283303
211.971 2.58018
214.836 3.82129
217.7 1.64039
220.564 -1.02433
223.429 -1.53553
226.293 -1.2786
229.158 1.66133
232.022 3.44195
234.887 -1.20099
237.751 -0.763738
240.616 0.302605
243.48 -0.877463
246.345 1.35533
249.209 7.0441
252.074 0.583175
254.938 1.20924
257.803 3.56436
260.667 1.37986
263.532 -1.30589
266.396 0.297278
269.26 1.4077
272.125 0.877668
274.989 1.54649
277.854 2.09939
280.718 1.65265
283.583 1.36946
286.447 -0.438587
289.312 8.16504
292.176 1.37039
295.041 2.469
297.905 -2.57044
300.77 -2.61447
303.634 -3.24281
306.499 -1.31828
309.363 1.07304
312.228 -0.75859
315.092 2.90186
317.957 -0.669136
320.821 -0.195636
323.686 1.85404
326.55 4.32257
329.414 1.63446
332.279 3.12447
335.143 4.43061
338.008 1.68885
340.872 7.06232
343.737 4.84361
346.601 7.60592
349.466 1.38016
352.33 2.27345
355.195 0.847295
358.059 11.9576
360.924 2.22493
363.788 3.62756
366.653 1.07803
369.517 -1.02111
372.382 3.18459
375.246 5.01643
378.111 2.0888
380.975 0.374926
383.839 3.74719
386.704 1.12927
389.568 0.427394
392.433 1.3615
395.297 1.32727
398.162 0.248115
401.026 -0.217563
403.891 -1.45729
406.755 -1.13489
409.62 -0.0782858
412.484 2.0092
415.349 0.0234821
418.213 -2.67817
421.078 -0.725798
423.942 0.896291
426.807 3.69901
429.671 2.76352
432.535 1.84234
435.4 6.26715
438.264 -0.613778
441.129 -0.835686
443.993 -0.211422
446.858 2.42083
449.722 4.2182
452.587 0.107014
455.451 1.45289
458.316 2.47917
461.18 1.53526
464.045 -1.74638
466.909 -0.32629
469.774 2.13242
472.638 15.7567
475.503 0.657239
478.367 -0.205471
481.232 1.60929
484.096 3.81018
486.961 3.39421
489.825 -0.479574
492.689 -0.707985
495.554 0.14994
498.418 -1.47179
501.283 -2.55024
504.147 -0.0783708
507.012 0.694805
509.876 1.01497
512.741 1.501
515.605 -0.0906622
518.47 -1.85381
521.334 1.11694
524.199 4.89592
527.063 3.25069
529.928 13.6514
532.792 1.6576
535.657 4.25126
538.521 0.675129
541.385 4.61491
544.25 5.56353
547.115 -0.293348
549.979 10.9338
552.843 0.843135
555.708 2.285
558.572 -2.40181
561.437 -2.16978
564.301 -0.0686162
567.166 2.37841
570.03 3.11543
572.895 0.633653
575.759 5.77017
578.624 1.77946
581.488 -0.998525
584.353 -1.23223
587.217 5.56665
590.082 -1.05014
592.946 -0.881403
595.81 -1.32972
598.675 -1.55648
601.539 0.537916
604.404 0.692099
607.268 -0.16698
610.133 -0.736942
612.997 0.28048
615.862 0.477494
618.726 0.733351
621.591 0.691635
624.455 0.632721
627.32 0.999521
630.184 0.574383
633.049 0.331797
635.913 0.507332
638.778 0.455737
641.642 0.956225
644.507 1.05774
647.371 0.773661
650.235 0.571377
653.1 0.402101
655.964 0.661759
658.829 0.813138
661.693 0.808156
664.558 1.01667
667.422 0.849875
670.287 1.06254
673.151 1.09691
676.016 1.0443
678.88 1.10198
681.745 1.00718
684.609 0.909558
687.474 1.0266
690.338 1.43064
693.203 1.79259
696.067 2.25075
698.932 2.31388
701.796 1.91939
704.66 1.53097
707.525 1.14824
710.389 0.906515
713.254 0.895754
716.118 0.802813
718.983 0.70155
721.847 0.623188
724.712 0.648694
727.576 0.704633
730.441 0.717625
733.305 0.658402
736.17 0.683038
739.034 0.79453
741.899 0.882965
744.763 0.87566
747.628 0.9495
750.492 0.998647
753.357 1.08485
756.221 1.18967
759.086 1.15541
761.95 1.1551
764.814 0.953518
767.679 0.835396
770.543 0.77927
773.408 0.676185
776.272 0.581181
779.137 0.52679
782.001 0.45117
784.866 0.450183
787.73 0.473685
790.595 0.459518
793.459 0.457267
796.324 0.47237
799.188 0.509838
802.053 0.436579
804.917 0.456735
807.782 0.464483
810.646 0.458902
813.51 0.432149
816.375 0.414469
819.239 0.437445
822.104 0.395905
824.968 0.379908
827.833 0.371018
830.697 0.376275
833.562 0.380775
836.426 0.379629
839.291 0.380958
842.155 0.377119
845.02 0.38955
847.884 0.364763
850.749 0.383607
853.613 0.354921
856.478 0.34826
859.342 0.340896
862.207 0.313843
865.071 0.322689
867.935 0.341691
870.8 0.361404
873.664 0.388078
876.529 0.384706
879.393 0.366208
882.258 0.345255
885.122 0.363369
887.987 0.349458
890.851 0.352803
893.716 0.345534
896.58 0.385731
899.445 0.410694
902.309 0.422037
905.174 0.493754
908.038 0.50672
910.903 0.51407
913.767 0.480068
916.632 0.424198
919.496 0.390573
922.36 0.371161
925.225 0.354585
928.089 0.352464
930.954 0.352901
933.818 0.357123
936.683 0.343188
939.547 0.341866
942.412 0.363754
945.276 0.36843
948.141 0.376208
951.005 0.397282
953.87 0.415969
956.734 0.479358
959.599 0.538651
962.463 0.622226
965.328 0.657481
968.192 0.636491
971.057 0.588498
973.921 0.525591
976.785 0.475385
979.65 0.427191
982.514 0.408607
985.379 0.403341
988.243 0.407042
991.108 0.416517
993.972 0.424272
996.837 0.42638
999.701 0.422945
1002.57 0.443149
1005.43 0.439801
1008.29 0.436324
1011.16 0.452635
1014.02 0.474018
1016.89 0.493475
1019.75 0.524453
1022.62 0.535095
1025.48 0.571109
1028.35 0.597202
1031.21 0.563948
1034.07 0.492938
1036.94 0.461043
1039.8 0.441371
1042.67 0.432319
1045.53 0.440731
1048.4 0.446111
1051.26 0.445237
1054.13 0.446935
1056.99 0.438106
1059.86 0.453934
1062.72 0.467863
1065.58 0.494747
1068.45 0.510431
1071.31 0.524811
1074.18 0.506574
1077.04 0.477422
1079.91 0.463635
1082.77 0.483032
1085.64 0.464291
1088.5 0.467823
1091.36 0.44865
1094.23 0.460507
1097.09 0.452713
1099.96 0.440905
1102.82 0.440068
1105.69 0.44796
1108.55 0.415415
1111.42 0.417224
1114.28 0.42042
1117.14 0.414803
1120.01 0.382632
1122.87 0.347104
1125.74 0.339832
1128.6 0.346219
1131.47 0.362659
1134.33 0.32578
1137.2 0.322485
1140.06 0.348853
1142.92 0.348132
1145.79 0.37378
1148.65 0.390291
1151.52 0.400431
1154.38 0.421831
1157.25 0.41612
1160.11 0.418733
1162.98 0.408883
1165.84 0.419642
1168.71 0.4123
1171.57 0.377754
1174.43 0.36103
1177.3 0.361388
1180.16 0.373272
1183.03 0.38671
1185.89 0.389776
1188.76 0.366979
1191.62 0.377789
1194.49 0.385711
1197.35 0.365415
1200.21 0.365562
1203.08 0.361794
1205.94 0.354244
1208.81 0.359996
1211.67 0.366113
1214.54 0.358993
1217.4 0.352748
1220.27 0.340189
1223.13 0.365391
1225.99 0.362177
1228.86 0.358456
1231.72 0.353023
1234.59 0.36093
1237.45 0.373957
1240.32 0.375438
1243.18 0.371392
1246.05 0.366612
1248.91 0.381551
1251.78 0.379834
1254.64 0.380485
1257.5 0.397087
1260.37 0.407854
1263.23 0.422978
1266.1 0.380029
1268.96 0.351153
1271.83 0.36458
1274.69 0.371199
1277.56 0.355496
1280.42 0.338733
1283.28 0.345044
1286.15 0.352622
1289.01 0.361089
1291.88 0.36314
1294.74 0.379968
1297.61 0.382005
1300.47 0.388853
1303.34 0.393466
1306.2 0.402937
1309.06 0.403786
1311.93 0.398946
1314.79 0.399007
1317.66 0.40357
1320.52 0.387526
1323.39 0.370778
1326.25 0.378995
1329.12 0.395657
1331.98 0.401723
1334.84 0.404162
1337.71 0.422877
1340.57 0.428453
1343.44 0.438157
1346.3 0.422276
1349.17 0.436678
1352.03 0.459892
1354.9 0.462808
1357.76 0.480967
1360.62 0.505469
1363.49 0.509973
1366.35 0.515198
1369.22 0.550515
1372.08 0.624496
1374.95 0.717795
1377.81 0.65414
1380.68 0.529171
1383.54 0.438197
1386.41 0.385829
1389.27 0.367396
1392.13 0.367581
1395 0.372058
1397.86 0.390368
1400.73 0.362931
1403.59 0.364988
1406.46 0.354624
1409.32 0.380884
1412.19 0.39858
1415.05 0.415902
1417.91 0.461204
1420.78 0.453387
1423.64 0.466548
1426.51 0.487296
1429.37 0.528671
1432.24 0.613989
1435.1 0.694913
1437.97 0.761576
1440.83 0.82991
1443.69 0.928038
1446.56 1.02921
1449.42 1.20063
1452.29 1.37452
1455.15 1.26143
1458.02 0.930586
1460.88 0.864047
1463.75 0.822835
1466.61 0.684024
1469.47 0.620146
1472.34 0.549584
1475.2 0.412521
1478.07 0.363326
1480.93 0.357172
1483.8 0.370091
1486.66 0.441756
1489.53 0.579155
1492.39 0.757776
1495.26 0.675862
1498.12 0.418805
1500.98 0.308876
1503.85 0.31891
1506.71 0.328513
1509.58 0.288999
1512.44 0.293306
1515.31 0.323129
1518.17 0.317904
1521.04 0.327325
1523.9 0.292807
1526.76 0.285898
1529.63 0.270201
1532.49 0.293843
1535.36 0.285322
1538.22 0.341482
1541.09 0.347744
1543.95 0.297015
1546.82 0.277421
1549.68 0.279657
1552.54 0.29319
1555.41 0.321416
1558.27 0.371196
1561.14 0.27048
1564 0.261618
1566.87 0.290368
1569.73 0.298001
1572.6 0.274092
1575.46 0.312584
1578.33 0.290129
1581.19 0.314205
1584.05 0.307499
1586.92 0.274257
1589.78 0.269742
1592.65 0.295808
1595.51 0.317367
1598.38 0.372944
1601.24 0.411679
1604.11 0.360109
1606.97 0.305982
1609.83 0.256979
1612.7 0.266407
1615.56 0.284433
1618.43 0.259001
1621.29 0.264869
1624.16 0.245512
1627.02 0.264364
1629.89 0.265258
1632.75 0.277521
1635.61 0.301946
1638.48 0.292131
1641.34 0.258197
1644.21 0.254055
1647.07 0.29585
1649.94 0.277214
1652.8 0.332249
1655.67 0.250735
1658.53 0.24051
1661.39 0.25265
1664.26 0.249778
1667.12 0.2787
1669.99 0.282892
1672.85 0.270246
1675.72 0.249514
1678.58 0.23327
1681.45 0.232545
1684.31 0.275466
1687.18 0.224427
1690.04 0.249731
1692.9 0.23946
1695.77 0.279525
1698.63 0.286223
1701.5 0.266525
1704.36 0.251899
1707.23 0.211979
1710.09 0.237435
1712.96 0.243838
1715.82 0.270362
1718.68 0.243746
1721.55 0.212005
1724.41 0.217237
1727.28 0.217288
1730.14 0.251576
1733.01 0.30582
1735.87 0.254288
1738.74 0.270686
1741.6 0.229879
1744.46 0.245306
1747.33 0.247742
1750.19 0.25185
1753.06 0.213869
1755.92 0.232213
1758.79 0.222833
1761.65 0.218168
1764.52 0.195523
1767.38 0.21615
1770.24 0.227916
1773.11 0.230496
1775.97 0.201117
1778.84 0.177977
1781.7 0.199069
1784.57 0.18735
1787.43 0.188822
1790.3 0.231223
1793.16 0.216395
1796.02 0.205378
1798.89 0.199856
1801.75 0.198771
1804.62 0.181837
1807.48 0.183432
1810.35 0.179749
1813.21 0.181809
1816.08 0.19665
1818.94 0.185255
1821.81 0.187949
1824.67 0.219327
1827.53 0.198504
1830.4 0.194484
1833.26 0.178578
1836.13 0.167176
1838.99 0.17397
1841.86 0.181022
1844.72 0.189957
1847.59 0.173225
1850.45 0.168214
1853.31 0.180842
1856.18 0.157804
1859.04 0.159559
1861.91 0.196202
1864.77 0.184349
1867.64 0.187785
1870.5 0.20695
1873.37 0.199131
1876.23 0.193393
1879.09 0.186628
1881.96 0.21321
1884.82 0.204755
1887.69 0.215337
1890.55 0.181231
1893.42 0.195958
1896.28 0.170308
1899.15 0.185535
1902.01 0.197055
1904.87 0.174354
1907.74 0.158154
1910.6 0.178634
1913.47 0.162856
1916.33 0.187441
1919.2 0.168368
1922.06 0.165076
1924.93 0.164862
1927.79 0.156433
1930.66 0.187922
1933.52 0.175909
1936.38 0.166566
1939.25 0.162703
1942.11 0.16995
1944.98 0.169245
1947.84 0.175593
1950.71 0.178379
1953.57 0.186031
1956.44 0.156018
1959.3 0.220719
1962.16 0.190646
1965.03 0.181561
1967.89 0.178511
1970.76 0.158726
1973.62 0.164404
1976.49 0.184878
1979.35 0.202658
1982.22 0.193981
1985.08 0.163118
1987.94 0.185639
1990.81 0.181938
1993.67 0.157921
1996.54 0.194696
1999.4 0.188344
2002.27 0.182955
2005.13 0.128947
2008 0.177361
2010.86 0.182778
2013.72 0.149669
2016.59 0.195228
2019.45 0.138624
2022.32 0.157529
2025.18 0.172858
2028.05 0.146948
2030.91 0.14999
2033.78 0.172094
2036.64 0.141821
2039.51 0.160121
2042.37 0.177222
2045.23 0.214714
2048.1 0.164478
2050.96 0.184488
2053.83 0.151573
2056.69 0.15173
2059.56 0.173797
2062.42 0.182244
2065.29 0.195722
2068.15 0.173171
2071.01 0.173363
2073.88 0.205411
2076.74 0.158061
2079.61 0.142733
2082.47 0.164699
2085.34 0.182793
2088.2 0.174104
2091.07 0.158099
2093.93 0.17502
2096.79 0.182253
2099.66 0.188719
2102.52 0.16293
2105.39 0.18454
2108.25 0.179025
2111.12 0.175619
2113.98 0.170077
2116.85 0.1514
2119.71 0.161251
2122.58 0.172411
2125.44 0.17204
2128.3 0.181104
2131.17 0.173466
2134.03 0.136575
2136.9 0.152359
2139.76 0.161861
2142.63 0.155028
2145.49 0.167294
2148.36 0.121484
2151.22 0.155868
2154.08 0.172203
2156.95 0.179081
2159.81 0.205174
2162.68 0.148827
2165.54 0.178869
2168.41 0.158844
2171.27 0.161002
2174.14 0.141363
2177 0.135479
2179.86 0.147458
2182.73 0.222678
2185.59 0.213731
2188.46 0.183717
2191.32 0.165138
2194.19 0.166363
2197.05 0.165918
2199.92 0.170393
2202.78 0.18483
2205.64 0.153316
2208.51 0.167186
2211.37 0.162754
2214.24 0.18395
2217.1 0.182528
2219.97 0.171737
2222.83 0.202132
2225.7 0.227054
2228.56 0.223282
2231.43 0.236765
2234.29 0.245002
2237.15 0.228137
2240.02 0.220564
2242.88 0.218035
2245.75 0.217254
2248.61 0.191252
2251.48 0.198231
2254.34 0.192279
2257.21 0.171145
2260.07 0.18402
2262.93 0.199717
2265.8 0.206584
2268.66 0.201273
2271.53 0.185344
2274.39 0.18341
2277.26 0.171182
2280.12 0.178258
2282.99 0.17255
2285.85 0.185357
2288.71 0.178686
2291.58 0.195329
2294.44 0.183175
2297.31 0.186127
2300.17 0.169628
2303.04 0.191389
2305.9 0.19765
2308.77 0.184577
2311.63 0.193312
2314.49 0.187048
2317.36 0.193561
2320.22 0.208731
2323.09 0.214606
2325.95 0.204534
2328.82 0.189089
2331.68 0.20072
2334.55 0.208822
2337.41 0.217326
2340.28 0.209366
2343.14 0.177177
2346 0.189959
2348.87 0.180958
2351.73 0.190961
2354.6 0.201103
2357.46 0.201149
2360.33 0.219757
2363.19 0.204626
2366.06 0.202282
2368.92 0.19121
2371.78 0.195562
2374.65 0.185374
2377.51 0.179446
2380.38 0.184434
2383.24 0.173453
2386.11 0.170192
2388.97 0.169364
2391.84 0.175463
2394.7 0.176167
2397.56 0.166703
2400.43 0.170375
2403.29 0.171529
2406.16 0.180317
2409.02 0.170096
2411.89 0.17137
2414.75 0.166688
2417.62 0.174381
2420.48 0.183405
2423.34 0.174436
2426.21 0.165233
2429.07 0.186752
2431.94 0.190522
2434.8 0.176971
2437.67 0.174639
2440.53 0.18292
2443.4 0.159182
2446.26 0.182613
2449.12 0.180833
2451.99 0.169023
2454.85 0.158299
2457.72 0.151669
2460.58 0.16509
2463.45 0.170163
2466.31 0.18727
2469.18 0.184083
2472.04 0.183108
2474.91 0.189316
2477.77 0.183374
2480.63 0.172394
2483.5 0.157348
2486.36 0.13999
2489.23 0.17096
2492.09 0.160871
2494.96 0.177359
2497.82 0.174022
2500.69 0.173819
2503.55 0.195811
2506.41 0.176603
2509.28 0.19361
2512.14 0.182059
2515.01 0.193303
2517.87 0.188679
2520.74 0.180547
2523.6 0.190806
2526.47 0.179169
2529.33 0.182124
2532.19 0.174088
2535.06 0.18245
2537.92 0.181113
2540.79 0.183751
2543.65 0.177662
2546.52 0.184351
2549.38 0.193973
2552.25 0.192626
2555.11 0.176976
2557.98 0.189585
2560.84 0.178033
2563.7 0.176627
2566.57 0.16179
2569.43 0.19046
2572.3 0.222061
2575.16 0.217852
2578.03 0.189881
2580.89 0.192373
2583.76 0.207164
2586.62 0.18374
2589.48 0.195817
2592.35 0.183825
2595.21 0.208058
2598.08 0.175242
2600.94 0.195088
2603.81 0.187853
2606.67 0.181918
2609.54 0.185063
2612.4 0.215435
2615.26 0.193393
2618.13 0.199705
2620.99 0.182991
2623.86 0.2084
2626.72 0.225727
2629.59 0.208924
2632.45 0.188552
2635.32 0.189148
2638.18 0.204197
2641.04 0.189239
2643.91 0.198079
2646.77 0.207802
2649.64 0.203323
2652.5 0.19737
2655.37 0.183992
2658.23 0.199564
2661.1 0.208519
2663.96 0.21083
2666.82 0.201495
2669.69 0.213729
2672.55 0.220976
2675.42 0.202551
2678.28 0.202172
2681.15 0.194065
2684.01 0.20014
2686.88 0.198273
2689.74 0.1998
2692.61 0.202772
2695.47 0.189232
2698.33 0.212025
2701.2 0.214334
2704.06 0.211379
2706.93 0.213448
2709.79 0.22194
2712.66 0.204361
2715.52 0.2038
2718.39 0.207701
2721.25 0.225181
2724.11 0.225752
2726.98 0.229212
2729.84 0.21349
2732.71 0.213718
2735.57 0.207324
2738.44 0.19935
2741.3 0.195035
2744.17 0.2202
2747.03 0.21839
2749.89 0.211632
2752.76 0.21039
2755.62 0.210341
2758.49 0.21391
2761.35 0.226324
2764.22 0.208884
2767.08 0.212685
2769.95 0.227313
2772.81 0.215784
2775.68 0.219204
2778.54 0.225926
2781.4 0.230933
2784.27 0.236914
2787.13 0.248026
2790 0.248829
2792.86 0.251351
2795.73 0.266185
2798.59 0.26553
2801.46 0.284852
2804.32 0.298237
2807.18 0.279197
2810.05 0.312802
2812.91 0.318979
2815.78 0.331181
2818.64 0.370371
2821.51 0.382549
2824.37 0.423353
2827.24 0.502504
2830.1 0.582691
2832.96 0.688682
2835.83 0.817354
2838.69 0.925806
2841.56 1.07255
2844.42 1.27601
2847.29 1.471
2850.15 1.48487
2853.02 1.3479
2855.88 1.14199
2858.74 1.00033
2861.61 0.929165
2864.47 0.869867
2867.34 0.857698
2870.2 0.85371
2873.07 0.815722
2875.93 0.847676
2878.8 0.856922
2881.66 0.869097
2884.53 0.921157
2887.39 0.994292
2890.25 1.08672
2893.12 1.1557
2895.98 1.24369
2898.85 1.33826
2901.71 1.43797
2904.58 1.55581
2907.44 1.66144
2910.31 1.79597
2913.17 1.96008
2916.03 2.10432
2918.9 2.06612
2921.76 1.91128
2924.63 1.75432
2927.49 1.59477
2930.36 1.37827
2933.22 1.22154
2936.09 1.08658
2938.95 0.981442
2941.81 0.918635
2944.68 0.89098
2947.54 0.893516
2950.41 0.868165
2953.27 0.824987
2956.14 0.78361
2959 0.764253
2961.87 0.695136
2964.73 0.599142
2967.59 0.498008
2970.46 0.441283
2973.32 0.381501
2976.19 0.34811
2979.05 0.333748
2981.92 0.310037
2984.78 0.289807
2987.65 0.276256
2990.51 0.26698
2993.38 0.257264
2996.24 0.267643
2999.1 0.271685
3001.97 0.290516
3004.83 0.295212
3007.7 0.262666
3010.56 0.254121
3013.43 0.242516
3016.29 0.272322
3019.16 0.313689
3022.02 0.349677
3024.88 0.384304
3027.75 0.38208
3030.61 0.33454
3033.48 0.300131
3036.34 0.25923
3039.21 0.244526
3042.07 0.230962
3044.94 0.215368
3047.8 0.244485
3050.66 0.245165
3053.53 0.260045
3056.39 0.265102
3059.26 0.277813
3062.12 0.272682
3064.99 0.246556
3067.85 0.248945
3070.72 0.230043
3073.58 0.217288
3076.44 0.234504
3079.31 0.245022
3082.17 0.225465
3085.04 0.241891
3087.9 0.206838
3090.77 0.185344
3093.63 0.185218
3096.5 0.186994
3099.36 0.193376
3102.23 0.200895
3105.09 0.195217
3107.95 0.188919
3110.82 0.187401
3113.68 0.169919
3116.55 0.14541
3119.41 0.161048
3122.28 0.170188
3125.14 0.159073
3128.01 0.148015
3130.87 0.174027
3133.73 0.149017
3136.6 0.159923
3139.46 0.160665
3142.33 0.167049
3145.19 0.175997
3148.06 0.170939
3150.92 0.181318
3153.79 0.157592
3156.65 0.162568
3159.51 0.161566
3162.38 0.13915
3165.24 0.165155
3168.11 0.163149
3170.97 0.155657
3173.84 0.17446
3176.7 0.170531
3179.57 0.162793
3182.43 0.172993
3185.29 0.188692
3188.16 0.179656
3191.02 0.168041
3193.89 0.163054
3196.75 0.160392
3199.62 0.164382
3202.48 0.15584
3205.35 0.161713
3208.21 0.15801
3211.07 0.168009
3213.94 0.165219
3216.8 0.165609
3219.67 0.187694
3222.53 0.166505
3225.4 0.169657
3228.26 0.177355
3231.13 0.171132
3233.99 0.163056
3236.86 0.140189
3239.72 0.164558
3242.58 0.153391
3245.45 0.158024
3248.31 0.15705
3251.18 0.136213
3254.04 0.166901
3256.91 0.168064
3259.77 0.14882
3262.64 0.185533
3265.5 0.186183
3268.36 0.190387
3271.23 0.153603
3274.09 0.173833
3276.96 0.149882
3279.82 0.155489
3282.69 0.155823
3285.55 0.149211
3288.42 0.177403
3291.28 0.181839
3294.14 0.130899
3297.01 0.133384
3299.87 0.195139
3302.74 0.186524
3305.6 0.176597
3308.47 0.168666
3311.33 0.176494
3314.2 0.149911
3317.06 0.144216
3319.93 0.157228
3322.79 0.166871
3325.65 0.130913
3328.52 0.159376
3331.38 0.160823
3334.25 0.170849
3337.11 0.15517
3339.98 0.163268
3342.84 0.162649
3345.71 0.182812
3348.57 0.138016
3351.43 0.1519
3354.3 0.13696
3357.16 0.151259
3360.03 0.160567
3362.89 0.152775
3365.76 0.182951
3368.62 0.155938
3371.49 0.161793
3374.35 0.154689
3377.21 0.147521
3380.08 0.16896
3382.94 0.138524
3385.81 0.165002
3388.67 0.165802
3391.54 0.180075
3394.4 0.169362
3397.27 0.131931
3400.13 0.141163
3402.99 0.165176
3405.86 0.162675
3408.72 0.174983
3411.59 0.165295
3414.45 0.167229
3417.32 0.140984
3420.18 0.167257
3423.05 0.176215
3425.91 0.16652
3428.77 0.169659
3431.64 0.149391
3434.5 0.142271
3437.37 0.157251
3440.23 0.164004
3443.1 0.188766
3445.96 0.141824
3448.83 0.163477
3451.69 0.151867
3454.56 0.162985
3457.42 0.129751
3460.28 0.13964
3463.15 0.155528
3466.01 0.160125
3468.88 0.163067
3471.74 0.172637
3474.61 0.146646
3477.47 0.178207
3480.34 0.156627
3483.2 0.194966
3486.06 0.15889
3488.93 0.147045
3491.79 0.172118
3494.66 0.159331
3497.52 0.163826
3500.39 0.160158
3503.25 0.127808
3506.12 0.157131
3508.98 0.153763
3511.84 0.132527
3514.71 0.14677
3517.57 0.174919
3520.44 0.158089
3523.3 0.145323
3526.17 0.161525
3529.03 0.181734
3531.9 0.152933
3534.76 0.171065
3537.62 0.138348
3540.49 0.178516
3543.35 0.165674
3546.22 0.159509
3549.08 0.191418
3551.95 0.156839
3554.81 0.149051
3557.68 0.169151
3560.54 0.156047
3563.41 0.178252
3566.27 0.197269
3569.13 0.155634
3572 0.110797
3574.86 0.144528
3577.73 0.189762
3580.59 0.155682
3583.46 0.168342
3586.32 0.177243
3589.19 0.169988
3592.05 0.179918
3594.91 0.167544
3597.78 0.179697
3600.64 0.13998
3603.51 0.130127
3606.37 0.176246
3609.24 0.182036
3612.1 0.182185
3614.97 0.205776
3617.83 0.203227
3620.69 0.128999
3623.56 0.134543
3626.42 0.176936
3629.29 0.160852
3632.15 0.152962
3635.02 0.181152
3637.88 0.180373
3640.75 0.147017
3643.61 0.146762
3646.47 0.214459
3649.34 0.225724
3652.2 0.15615
3655.07 0.182973
3657.93 0.160037
3660.8 0.151147
3663.66 0.18202
3666.53 0.160791
3669.39 0.214808
3672.26 0.21993
3675.12 0.214664
3677.98 0.147641
3680.85 0.117609
3683.71 0.134088
3686.58 0.148865
3689.44 0.173183
3692.31 0.163032
3695.17 0.142428
3698.04 0.144622
3700.9 0.149175
3703.76 0.149383
3706.63 0.19275
3709.49 0.228633
3712.36 0.173926
3715.22 0.15174
3718.09 0.138256
3720.95 0.189177
3723.82 0.168598
3726.68 0.178915
3729.54 0.185235
3732.41 0.191399
3735.27 0.16447
3738.14 0.146704
3741 0.186762
3743.87 0.216117
3746.73 0.206366
3749.6 0.214158
3752.46 0.138807
3755.32 0.156393
3758.19 0.162825
3761.05 0.145154
3763.92 0.141738
3766.78 0.146251
3769.65 0.102099
3772.51 0.119847
3775.38 0.137325
3778.24 0.140207
3781.11 0.129493
3783.97 0.13125
3786.83 0.151682
3789.7 0.161067
3792.56 0.162963
3795.43 0.158313
3798.29 0.177189
3801.16 0.21079
3804.02 0.193057
3806.89 0.189371
3809.75 0.154866
3812.61 0.153483
3815.48 0.144634
3818.34 0.167436
3821.21 0.158747
3824.07 0.136878
3826.94 0.155685
3829.8 0.206766
3832.67 0.164856
3835.53 0.150328
3838.39 0.161593
3841.26 0.123737
3844.12 0.134134
3846.99 0.110037
3849.85 0.189797
3852.72 0.223137
3855.58 0.174435
3858.45 0.175964
3861.31 0.16075
3864.17 0.172211
3867.04 0.192497
3869.9 0.168234
3872.77 0.138328
3875.63 0.127005
3878.5 0.163495
3881.36 0.149516
3884.23 0.192285
3887.09 0.143958
3889.96 0.175077
3892.82 0.135644
3895.68 0.113445
3898.55 0.155261
3901.41 0.179673
3904.28 0.147204
3907.14 0.141784
3910.01 0.140901
3912.87 0.132561
3915.74 0.137723
3918.6 0.147029
3921.46 0.126574
3924.33 0.139331
3927.19 0.173872
3930.06 0.164648
3932.92 0.141954
3935.79 0.137693
3938.65 0.117614
3941.52 0.137856
3944.38 0.135909
3947.24 0.144168
3950.11 0.134543
3952.97 0.163117
3955.84 0.156486
3958.7 0.146054
3961.57 0.109414
3964.43 0.141331
3967.3 0.166796
3970.16 0.152533
3973.02 0.170002
3975.89 0.121882
3978.75 0.132132
3981.62 0.175072
3984.48 0.130859
3987.35 0.115717
3990.21 0.130197
3993.08 0.117218
3995.94 0.133843
3998.81 0.161358
4001.67 0.118548
4004.53 0.126883
4007.4 0.104603
4010.26 0.114624
4013.13 0.147997
4015.99 0.134666
4018.86 0.156296
4021.72 0.129578
4024.59 0.116267
4027.45 0.10359
4030.31 0.142488
4033.18 0.131529
4036.04 0.128866
4038.91 0.148222
4041.77 0.0804497
4044.64 0.0895484
4047.5 0.172268
4050.37 0.157113
4053.23 0.158012
4056.09 0.123638
4058.96 0.0752766
4061.82 0.115178
4064.69 0.141866
4067.55 0.137409
4070.42 0.123584
4073.28 0.102511
4076.15 0.176042
4079.01 0.192174
4081.88 0.153014
4084.74 0.114997
4087.6 0.102522
4090.47 0.128322
4093.33 0.200003
4096.2 0.164199
4099.06 0.142449
4101.93 0.188762
4104.79 0.107285
4107.66 0.162507
4110.52 0.190575
4113.38 0.118888
4116.25 0.166513
4119.11 0.161852
4121.98 0.180866
4124.84 0.138738
4127.71 0.125464
4130.57 0.0808658
4133.44 0.104792
4136.3 0.161351
4139.16 0.218541
4142.03 0.149411
4144.89 0.13081
4147.76 0.17663
4150.62 0.160743
4153.49 0.175321
4156.35 0.146544
4159.22 0.15542
4162.08 0.14868
4164.94 0.137702
4167.81 0.102591
4170.67 0.12689
4173.54 0.0987086
4176.4 0.0926346
4179.27 0.0918213
4182.13 0.192143
4185 0.144367
4187.86 0.184164
4190.73 0.149328
4193.59 0.159441
4196.45 0.128102
4199.32 0.140294
4202.18 0.176758
4205.05 0.119592
4207.91 0.0981255
4210.78 0.145033
4213.64 0.125349
4216.5 0.161943
4219.37 0.112048
4222.23 0.138865
4225.1 0.122194
4227.96 0.14081
4230.83 0.145877
4233.69 0.0856799
4236.56 0.0887251
4239.42 0.0717879
4242.29 0.111232
4245.15 0.149004
4248.01 0.180039
4250.88 0.150631
4253.74 0.117711
4256.61 0.151237
4259.47 0.20206
4262.34 0.139118
4265.2 0.117404
4268.07 0.158127
4270.93 0.101315
4273.79 0.111567
4276.66 0.174698
4279.52 0.176128
4282.39 0.130262
4285.25 0.13212
4288.12 0.131221
4290.98 0.152513
4293.85 0.164095
4296.71 0.132016
4299.57 0.141115
4302.44 0.0870281
4305.3 0.0710579
4308.17 0.0965035
4311.03 0.12101
4313.9 0.126414
4316.76 0.14006
4319.63 0.109755
4322.49 0.140842
4325.36 0.196257
4328.22 0.171834
4331.08 0.168435
4333.95 0.11116
4336.81 0.161857
4339.68 0.122896
4342.54 0.138067
4345.41 0.0784352
4348.27 0.0888749
4351.14 0.10634
4354 0.0912479
4356.86 0.164594
4359.73 0.139826
4362.59 0.108047
4365.46 0.146049
4368.32 0.12434
4371.19 0.154694
4374.05 0.1685
4376.92 0.110144
4379.78 0.106694
4382.64 0.0939933
4385.51 0.0602131
4388.37 0.0819818
4391.24 0.132141
4394.1 0.103112
4396.97 0.119132
4399.83 0.108048
4402.7 0.113948
4405.56 0.140692
4408.43 0.150179
4411.29 0.0972571
4414.15 0.163516
4417.02 0.152103
4419.88 0.124621
4422.75 0.0993219
4425.61 0.118063
4428.48 0.122315
4431.34 0.107289
4434.21 0.129833
4437.07 0.127454
4439.93 0.175939
4442.8 0.11015
4445.66 0.106949
4448.53 0.116907
4451.39 0.119629
4454.26 0.092486
4457.12 0.0874246
4459.99 0.0465176
4462.85 0.150487
4465.71 0.165774
4468.58 0.142864
4471.44 0.155559
4474.31 0.172222
4477.17 0.116447
4480.04 0.108899
4482.9 0.10533
4485.77 0.105978
4488.63 0.117602
4491.49 0.133668
4494.36 0.110293
4497.22 0.138164
4500.09 0.145351
4502.95 0.144623
4505.82 0.176989
4508.68 0.133269
4511.55 0.111342
4514.41 0.118705
4517.27 0.106368
4520.14 0.117703
4523 0.169689
4525.87 0.149529
4528.73 0.17763
4531.6 0.153968
4534.46 0.106223
4537.33 0.142911
4540.19 0.0803017
4543.06 0.182165
4545.92 0.178076
4548.78 0.134305
4551.65 0.171013
4554.51 0.180138
4557.38 0.0973262
4560.24 0.0748678
4563.11 0.0916346
4565.97 0.208656
4568.84 0.15302
4571.7 0.195303
4574.56 0.129977
4577.43 0.0858058
4580.29 0.100608
4583.16 0.223808
4586.02 0.199655
4588.89 0.181745
4591.75 0.115036
4594.62 0.0756274
4597.48 0.122617
4600.34 0.238617
4603.21 0.297168
4606.07 0.144881
4608.94 0.114234
4611.8 0.108106
4614.67 0.156987
4617.53 0.171643
4620.4 0.123301
4623.26 0.143121
4626.12 0.199574
4628.99 0.0397695
4631.85 0.130499
4634.72 0.127519
4637.58 0.0565773
4640.45 0.105779
4643.31 0.153335
4646.18 0.0698574
4649.04 0.15566
4651.91 0.115509
4654.77 0.278493
4657.63 0.18359
4660.5 0.0987772
4663.36 0.179878
4666.23 0.165246
4669.09 0.120327
4671.96 0.171125
4674.82 0.263152
4677.69 0.22065
4680.55 0.251328
4683.41 0.31734
4686.28 0.237409
4689.14 0.075894
4692.01 0.217444
4694.87 0.0597126
4697.74 0.121235
4700.6 0.187981
4703.47 0.220699
4706.33 0.189958
4709.19 0.204589
4712.06 0.128899
4714.92 0.21605
4717.79 0.161815
4720.65 0.25281
4723.52 0.147734
4726.38 0.163502
4729.25 0.293371
4732.11 0.114948
4734.97 0.299958
4737.84 0.328593
4740.7 0.264653
4743.57 0.290313
4746.43 0.198596
4749.3 0.193264
4752.16 0.183048
4755.03 0.232134
4757.89 0.169037
4760.76 0.276258
4763.62 0.338161
4766.48 0.163791
4769.35 0.21651
4772.21 0.141167
4775.08 0.214768
4777.94 0.233616
4780.81 0.25073
4783.67 0.389925
4786.54 0.522102
4789.4 0.170108
4792.26 0.21895
4795.13 0.3665
4797.99 0.304898
4800.86 0.242023
4803.72 0.0853108
4806.59 0.209068
4809.45 0.0408585
4812.32 0.106683
4815.18 0.308403
4818.04 0.665643
4820.91 0.546323
4823.77 0.466607
4826.64 0.644766
4829.5 0.549346
4832.37 0.133601
4835.23 0.110953
4838.1 0.571057
4840.96 0.410205
4843.83 0.244905
4846.69 0.571954
4849.55 0.612647
4852.42 0.313834
4855.28 0.527936
4858.15 0.213626
4861.01 0.588533
4863.88 0.0435722
4866.74 0.501881
4869.6 0.281521
4872.47 0.443652
4875.33 0.491287
4878.2 0.54983
4881.06 0.568664
4883.93 0.707409
4886.79 0.654516
4889.66 0.83734
4892.52 0.600042
4895.39 1.0077
4898.25 0.873547
4901.11 0.0366913
4903.98 0.406345
4906.84 1.08057
4909.71 1.1224
4912.57 1.08111
4915.44 0.755296
4918.3 1.31952
4921.17 0.916089
4924.03 0.958126
4926.89 0.907617
4929.76 0.241232
4932.62 1.20714
4935.49 1.26242
4938.35 0.580999
4941.22 0.409
4944.08 1.62762
4946.95 1.06592
4949.81 -0.0343291
4952.67 0.1102
4955.54 1.29215
4958.4 2.58234
4961.27 3.15207
4964.13 0.695813
4967 0.537514
4969.86 1.6978
4972.73 2.12722
4975.59 1.38496
4978.46 0.844323
4981.32 0.682753
4984.18 1.66219
4987.05 5.75199
4989.91 2.29349
4992.78 0.418479
4995.64 1.48521
4998.51 0.78609
5001.37 1.80902
5004.24 3.32749
5007.1 2.99869
5009.96 -0.865231
5012.83 -0.884404
5015.69 0.836903
5018.56 0.940799
5021.42 7.89196
5024.29 9.35554
5027.15 1.95367
5030.02 1.01391
5032.88 -0.761664
5035.75 1.24394
5038.61 1.1061
5041.47 -0.859153
5044.34 -0.678384
5047.2 1.33956
5050.07 4.72359
5052.93 1.73786
5055.8 3.983
5058.66 1.99124
5061.52 1.7886
5064.39 1.9155
5067.25 1.95674
5070.12 2.02701
5072.98 0.984254
5075.85 1.43776
5078.71 -0.757667
5081.58 2.01466
5084.44 0.0675034
5087.31 -0.809375
5090.17 0.425149
5093.03 -2.13839
5095.9 -2.13366
5098.76 0.158146
5101.63 -5.86814
5104.49 -2.29624
5107.36 2.18777
5110.22 -0.863435
5113.09 1.91069
5115.95 6.56564
5118.81 -1.98487
5121.68 -1.55589
5124.54 -0.985645
5127.41 -1.13136
5130.27 -1.81149
5133.14 0.759855
5136 -2.93608
5138.87 -4.40271
5141.73 -2.41214
5144.59 -3.14445
5147.46 -3.95916
5150.32 -2.02555
5153.19 -0.922159
5156.05 -2.42236
5158.92 2.4482
5161.78 -1.06579
5164.65 -3.33279
5167.51 -1.40648
5170.38 -1.58446
5173.24 -2.3326
5176.1 0.0506057
5178.97 -1.27063
5181.83 -1.91834
5184.7 -0.434733
5187.56 -2.53553
5190.43 -0.348954
5193.29 -1.05932
5196.16 2.34368
5199.02 -0.0227793
5201.88 -2.87248
5204.75 2.58721
5207.61 1.10175
5210.48 -0.925505
5213.34 0.206292
5216.21 1.11421
5219.07 0.222905
5221.94 -1.68927
5224.8 -1.98817
5227.66 -3.18194
5230.53 -1.31895
5233.39 -2.1879
5236.26 0.0677127
5239.12 0.826459
5241.99 -1.21763
5244.85 5.19187
5247.72 -2.89682
5250.58 -3.26188
5253.44 -2.12844
5256.31 2.62033
5259.17 0.763371
5262.04 -1.14187
5264.9 -1.61216
5267.77 -2.23351
5270.63 0.230532
5273.5 -0.191908
5276.36 -0.80735
5279.23 0.173593
5282.09 -0.0399021
5284.95 2.16389
5287.82 3.47431
5290.68 2.41559
5293.55 -0.291202
5296.41 -0.320418
5299.28 -1.11183
5302.14 1.02706
5305.01 0.479785
5307.87 2.10904
5310.73 -1.49935
5313.6 0.197397
5316.46 0.581699
5319.33 1.91039
5322.19 0.655945
5325.06 0.616347
5327.92 2.29434
5330.79 -1.03816
5333.65 -2.07155
5336.51 -0.883189
5339.38 0.46383
5342.24 -0.912455
5345.11 0.223202
5347.97 1.12363
5350.84 3.73896
5353.7 1.21646
5356.57 0.230689
5359.43 0.78685
5362.29 0.101539
5365.16 -1.29728
5368.02 -1.23206
5370.89 -1.28195
5373.75 -1.70331
5376.62 0.353992
5379.48 8.63612
5382.35 -0.105966
5385.21 -0.929629
5388.08 -0.149417
5390.94 -0.703911
5393.8 0.765997
5396.67 -1.44942
5399.53 2.66978
5402.4 -1.78673
5405.26 -0.874903
5408.13 -0.759278
5410.99 -0.326609
5413.86 -2.0981
5416.72 -1.21864
5419.58 0.268574
5422.45 0.611119
5425.31 -0.692627
5428.18 -0.713933
5431.04 -1.58087
5433.91 0.587323
5436.77 1.43597
5439.64 0.121313
5442.5 -1.65281
5445.36 -0.0329708
5448.23 -0.247854
5451.09 -1.08131
5453.96 -1.02362
5456.82 -0.690907
5459.69 -2.16094
5462.55 -1.56633
5465.42 0.668956
5468.28 -2.7584
5471.15 -2.87493
5474.01 1.55565
5476.87 1.53288
5479.74 0.694478
5482.6 -1.5805
5485.47 -2.17705
5488.33 -2.4931
5491.2 -0.314232
5494.06 1.83138
5496.92 1.48017
5499.79 1.62737
5502.65 7.56545
5505.52 -1.36203
5508.38 0.251799
5511.25 -0.651492
5514.11 1.82398
5516.98 -0.443856
5519.84 -0.945463
5522.71 2.58749
5525.57 1.70481
5528.43 -0.195854
5531.3 1.09874
5534.16 -2.59693
5537.03 -3.53764
5539.89 -2.47511
5542.76 -2.74362
5545.62 -2.3729
5548.49 -1.08754
5551.35 -1.16338
5554.21 -2.32493
5557.08 -2.21159
5559.94 -0.953489
5562.81 1.4695
5565.67 -0.875656
5568.54 1.19775
5571.4 -1.40277
5574.27 2.22915
5577.13 -0.900665
5579.99 -1.97972
5582.86 -1.2769
5585.72 1.15704
5588.59 -0.906313
5591.45 0.947014
5594.32 -0.0489909
5597.18 0.821735
5600.05 -1.3205
5602.91 -2.11392
5605.78 -0.23064
5608.64 0.337632
5611.5 -0.591061
5614.37 -0.305825
5617.23 0.443879
5620.1 3.10471
5622.96 -0.259844
5625.83 0.596842
5628.69 2.86165
5631.56 0.336533
5634.42 3.35919
5637.28 0.57922
5640.15 -0.241262
5643.01 0.216206
5645.88 -1.63886
5648.74 0.185533
5651.61 -1.67173
5654.47 1.8273
5657.34 5.18022
5660.2 1.98192
5663.06 2.56567
5665.93 4.43601
5668.79 0.969244
5671.66 4.66957
5674.52 -0.6559
5677.39 -1.66945
5680.25 3.2318
5683.12 0.737285
5685.98 -1.10317
5688.84 0.177708
5691.71 0.772932
5694.57 0.94891
5697.44 -0.111488
5700.3 0.036181
5703.17 3.7356
5706.03 1.84249
5708.9 1.47065
5711.76 0.897676
5714.62 3.49826
5717.49 2.52479
5720.35 0.981739
5723.22 3.92863
5726.08 0.744738
5728.95 2.35757
5731.81 0.456182
5734.68 -2.30042
5737.54 -1.9115
5740.41 0.762707
5743.27 2.17827
5746.13 -0.0870684
5749 -0.319857
5751.86 4.02243
5754.73 2.60722
5757.59 3.17058
5760.46 -1.14793
5763.32 -1.97875
5766.19 -2.08268
5769.05 2.12014
5771.91 5.20935
5774.78 0.99455
5777.64 1.79753
5780.51 2.28455
5783.37 2.54818
5786.24 2.7214
5789.1 -0.43361
5791.97 1.35773
5794.83 3.65631
5797.69 12.2434
5800.56 2.03928
5803.42 0.282543
5806.29 3.30105
5809.15 0.829313
5812.02 1.02676
5814.88 0.62765
5817.75 -0.129911
5820.61 -1.80523
5823.48 -2.11368
5826.34 2.92971
5829.2 0.770288
5832.07 6.51018
5834.93 2.16187
5837.8 2.95411
5840.66 1.09843
5843.53 10.8704
5846.39 1.54085
5849.26 4.92633
5852.12 1.37868
5854.98 3.5989
5857.85 1.53366
5860.71 6.74305
5863.58 2.84048
spectrumdark 2048
0 3436.82
2.8709 2313.16
5.74181 863.271
8.61271 794.6
11.4836 690.236
14.3545 946.677
17.2254 719.815
20.0963 795.86
22.9672 1568.36
25.8381 1687.7
28.709 1432.27
31.5799 1311.03
34.4509 1721.86
37.3218 2006.39
40.1927 2246.52
43.0636 1565.06
45.9345 1998.37
48.8054 2217.6
51.6763 2157.96
54.5472 1844.01
57.4181 2341.36
60.289 2476
63.1599 3226.23
66.0308 3429.22
68.9017 2390.89
71.7726 3366.72
74.6435 3318.04
77.5144 3549.29
80.3853 3958.76
83.2562 3800.63
86.1271 2870.9
88.998 2962.01
91.8689 3612.78
94.7398 3206.12
97.6107 2577.93
100.482 2745.98
103.353 3260.8
106.223 3283.45
109.094 3376.08
111.965 3922.49
114.836 3016.44
117.707 2364.82
120.578 3341.52
123.449 4392.32
126.32 2689.79
129.191 2565.19
132.062 2915.86
134.932 3450.54
137.803 3255.98
140.674 4128.23
143.545 3069.15
146.416 2939.54
149.287 2444.72
152.158 2394.72
155.029 3425.52
157.9 3282.35
160.771 3489.37
163.642 3847.98
166.512 3171.24
169.383 2837.4
172.254 2159.83
175.125 3052.28
177.996 3394.85
180.867 3806.78
183.738 3535.77
186.609 3169.85
189.48 2429.46
192.351 3376.59
195.221 2851.22
198.092 3297.69
200.963 3601.51
203.834 3443.7
206.705 3025.97
209.576 3927.09
212.447 4731.1
215.318 3231.93
218.189 3936.49
221.06 3411.03
223.931 2775.26
226.801 2444.67
229.672 3008
232.543 3280.8
235.414 3671.33
238.285 3706.49
241.156 3531.53
244.027 2984.54
246.898 3245.16
249.769 3092.37
252.64 2442.24
255.51 2365.45
258.381 2212.33
261.252 2809.91
264.123 3913.73
266.994 4037.66
269.865 3416.14
272.736 3231.05
275.607 2448.94
278.478 3384.12
281.349 2704.36
284.22 2609.74
287.09 1803.95
289.961 2727.2
292.832 2842.84
295.703 3434.87
298.574 2735.1
301.445 2650.73
304.316 2707.91
307.187 2048.06
310.058 2287.04
312.929 2651.33
315.799 2381.78
318.67 2117.55
321.541 2906.88
324.412 2617.7
327.283 2667.4
330.154 2043.78
333.025 3075.44
335.896 3089.02
338.767 2006.73
341.638 3579.83
344.509 2892.31
347.379 2320.68
350.25 1896.03
353.121 2573.13
355.992 2733.39
358.863 1940.83
361.734 3670.48
364.605 2741.79
367.476 2519.53
370.347 2603.05
373.218 3057.6
376.088 1714.62
378.959 2483.42
381.83 2182.45
384.701 2117.5
387.572 2148.08
390.443 3297.62
393.314 3139.66
396.185 2602.18
399.056 2178.95
401.927 1997.75
404.798 1529.42
407.668 1599.72
410.539 1654.63
413.41 2041.6
416.281 2134.99
419.152 1809.03
422.023 1828.32
424.894 2055.48
427.765 1785.1
430.636 2499.07
433.507 2008.14
436.378 1794.59
439.248 1806.69
442.119 2115.28
444.99 1782.68
447.861 1152.51
450.732 1751.16
453.603 2321.23
456.474 2795.26
459.345 2907
462.216 2514.88
465.087 2010.05
467.957 1601.5
470.828 2029.06
473.699 2445.32
476.57 2185.19
479.441 2076.3
482.312 2455.5
485.183 2150.09
488.054 2442.81
490.925 1727.83
493.796 2611.38
496.666 2239.89
499.537 2258.4
502.408 1751.22
505.279 2089.45
508.15 1746.17
511.021 2766.64
513.892 2871.27
516.763 2294.48
519.634 1706.17
522.505 2367.17
525.376 1426.73
528.246 1839.61
531.117 2222.57
533.988 2419.29
536.859 2425.41
539.73 1342.64
542.601 2326.95
545.472 3234.68
548.343 1960.68
551.214 1508.79
554.085 2101.09
556.955 2547.23
559.826 2034.55
562.697 2129.32
565.568 1661.02
568.439 1521.3
571.31 1651.13
574.181 2020.32
577.052 2916.74
579.923 2279.11
582.794 2144.4
585.664 1725.61
588.535 2766.15
591.406 3321.16
594.277 3928.61
597.148 4081.7
600.019 4472.14
602.89 4654.06
605.761 5681.8
608.632 5863.55
611.503 5810.6
614.374 6838.67
617.244 8652.93
620.115 9872.74
622.986 10930.8
625.857 13933.3
628.728 15269.7
631.599 16458.6
634.47 18339.1
637.341 20359.5
640.212 21950.4
643.083 25348.3
645.953 27256.2
648.824 29423.4
651.695 31526.3
654.566 33117.9
657.437 35629
660.308 38239.1
663.179 40716.2
666.05 42815.4
668.921 40883.1
671.792 47437.3
674.663 50354.3
677.533 53413.3
680.404 54546.8
683.275 57185.9
686.146 59353.7
689.017 61313.9
691.888 64042.9
694.759 66945.8
697.63 69664
700.501 72660.6
703.372 75583.9
706.242 77326.3
709.113 79590.7
711.984 83289.2
714.855 86371.7
717.726 88905
720.597 91331.5
723.468 94370.6
726.339 96910.8
729.21 100854
732.081 104291
734.952 107607
737.822 111039
740.693 115162
743.564 118234
746.435 121474
749.306 125692
752.177 129240
755.048 133140
757.919 137586
760.79 141010
763.661 146279
766.531 149256
769.402 154409
772.273 158770
775.144 162379
778.015 167162
780.886 170793
783.757 174073
786.628 177768
789.499 181332
792.37 185384
795.24 188630
798.111 191941
800.982 197678
803.853 201680
806.724 206310
809.595 211831
812.466 216842
815.337 221654
818.208 226438
821.079 231515
823.95 237054
826.82 240480
829.691 246470
832.562 250941
835.433 255391
838.304 260018
841.175 263193
844.046 267782
846.917 271719
849.788 275269
852.659 280373
855.53 284120
858.4 288058
861.271 292096
864.142 295493
867.013 299522
869.884 304051
872.755 308375
875.626 312203
878.497 316567
881.368 321924
884.239 325949
887.109 329886
889.98 335649
892.851 340190
895.722 344919
898.593 350630
901.464 355330
904.335 360431
907.206 365258
910.077 370910
912.948 376495
915.819 381655
918.689 387416
921.56 392437
924.431 398349
927.302 405130
930.173 411162
933.044 418223
935.915 424879
938.786 431195
941.657 438295
944.528 445886
947.398 453651
950.269 461838
953.14 470575
956.011 479993
958.882 489971
961.753 499983
964.624 511360
967.495 522609
970.366 534370
973.237 546936
976.107 559032
978.978 572153
981.849 583507
984.72 595485
987.591 606323
990.462 616563
993.333 624968
996.204 632525
999.075 636667
1001.95 639680
1004.82 639866
1007.69 637394
1010.56 632278
1013.43 625707
1016.3 617750
1019.17 609205
1022.04 600301
1024.91 590988
1027.78 580557
1030.65 570083
1033.53 558936
1036.4 547043
1039.27 535279
1042.14 522668
1045.01 510070
1047.88 497596
1050.75 485286
1053.62 472936
1056.49 459959
1059.36 447468
1062.23 434617
1065.11 422077
1067.98 409533
1070.85 398128
1073.72 386158
1076.59 374486
1079.46 363920
1082.33 354432
1085.2 346011
1088.07 338307
1090.94 331990
1093.81 325690
1096.69 321525
1099.56 318007
1102.43 315278
1105.3 312950
1108.17 311349
1111.04 309782
1113.91 309092
1116.78 308431
1119.65 308054
1122.52 307751
1125.39 307132
1128.27 307720
1131.14 307790
1134.01 307943
1136.88 306608
1139.75 307039
1142.62 307141
1145.49 306593
1148.36 305753
1151.23 304977
1154.1 303189
1156.97 301089
1159.85 299995
1162.72 298147
1165.59 296519
1168.46 294712
1171.33 291899
1174.2 289610
1177.07 286549
1179.94 283234
1182.81 280510
1185.68 277492
1188.55 274503
1191.43 271221
1194.3 268643
1197.17 265812
1200.04 262634
1202.91 260638
1205.78 258519
1208.65 256535
1211.52 255209
1214.39 253783
1217.26 253634
1220.13 254234
1223.01 255620
1225.88 257621
1228.75 260119
1231.62 263813
1234.49 267892
1237.36 272473
1240.23 278524
1243.1 284150
1245.97 290863
1248.84 296321
1251.71 301037
1254.59 304814
1257.46 306818
1260.33 306360
1263.2 306672
1266.07 308244
1268.94 309203
1271.81 309731
1274.68 310650
1277.55 310834
1280.42 310324
1283.29 310130
1286.17 309679
1289.04 308721
1291.91 308499
1294.78 307640
1297.65 306819
1300.52 306004
1303.39 305693
1306.26 304706
1309.13 303851
1312 302378
1314.87 300825
1317.75 300008
1320.62 298478
1323.49 299042
1326.36 298935
1329.23 298719
1332.1 297399
1334.97 296315
1337.84 293998
1340.71 289510
1343.58 291003
1346.45 294885
1349.33 293502
1352.2 292907
1355.07 291912
1357.94 290098
1360.81 288762
1363.68 282163
1366.55 282823
1369.42 287134
1372.29 285429
1375.16 281184
1378.03 280192
1380.91 284524
1383.78 284993
1386.65 282834
1389.52 273594
1392.39 279058
1395.26 274810
1398.13 266753
1401 270393
1403.87 276341
1406.74 274878
1409.61 277234
1412.48 277927
1415.36 276105
1418.23 269867
1421.1 250933
1423.97 263911
1426.84 269369
1429.71 272565
1432.58 267078
1435.45 267655
1438.32 251280
1441.19 260414
1444.06 272136
1446.94 270901
1449.81 262833
1452.68 264356
1455.55 259192
1458.42 231482
1461.29 236139
1464.16 263238
1467.03 254550
1469.9 260923
1472.77 255157
1475.64 235918
1478.52 253778
1481.39 265818
1484.26 267122
1487.13 265907
1490 253500
1492.87 246528
1495.74 257908
1498.61 243741
1501.48 247234
1504.35 253610
1507.22 231385
1510.1 207542
1512.97 242718
1515.84 247023
1518.71 237939
1521.58 230667
1524.45 216775
1527.32 236943
1530.19 241985
1533.06 249189
1535.93 235274
1538.8 237245
1541.68 204055
1544.55 207003
1547.42 231498
1550.29 246631
1553.16 242807
1556.03 233378
1558.9 214819
1561.77 184572
1564.64 230625
1567.51 242612
1570.38 241060
1573.26 231442
1576.13 241255
1579 219110
1581.87 242915
1584.74 246864
1587.61 246730
1590.48 245070
1593.35 242305
1596.22 240524
1599.09 238013
1601.96 235719
1604.84 231003
1607.71 226587
1610.58 220886
1613.45 215962
1616.32 209711
1619.19 188679
1622.06 198609
1624.93 197356
1627.8 196296
1630.67 200775
1633.54 203233
1636.42 195932
1639.29 184688
1642.16 210457
1645.03 212472
1647.9 201154
1650.77 193065
1653.64 196794
1656.51 171956
1659.38 221334
1662.25 229136
1665.12 222969
1668 227755
1670.87 222187
1673.74 215258
1676.61 222685
1679.48 220527
1682.35 228361
1685.22 214185
1688.09 198180
1690.96 230984
1693.83 230355
1696.7 223678
1699.58 197653
1702.45 196387
1705.32 210287
1708.19 222653
1711.06 230384
1713.93 231921
1716.8 220357
1719.67 204332
1722.54 216117
1725.41 233582
1728.28 233027
1731.16 229281
1734.03 218087
1736.9 197421
1739.77 217264
1742.64 218622
1745.51 224065
1748.38 224656
1751.25 219397
1754.12 215217
1756.99 227477
1759.86 224772
1762.74 227156
1765.61 221516
1768.48 228110
1771.35 217280
1774.22 211062
1777.09 212607
1779.96 224223
1782.83 222219
1785.7 221588
1788.57 220020
1791.44 220250
1794.32 210567
1797.19 210816
1800.06 217334
1802.93 213335
1805.8 213898
1808.67 215596
1811.54 212625
1814.41 208856
1817.28 208152
1820.15 202650
1823.02 196588
1825.9 192566
1828.77 186388
1831.64 185562
1834.51 183430
1837.38 187170
1840.25 184476
1843.12 180504
1845.99 174030
1848.86 171464
1851.73 176478
1854.6 175961
1857.48 174158
1860.35 172032
1863.22 170288
1866.09 168293
1868.96 164239
1871.83 159747
1874.7 161697
1877.57 162692
1880.44 161128
1883.31 159155
1886.18 157683
1889.06 154734
1891.93 152413
1894.8 150738
1897.67 150123
1900.54 148517
1903.41 147341
1906.28 145436
1909.15 143246
1912.02 141065
1914.89 139709
1917.76 137193
1920.64 134238
1923.51 133173
1926.38 131967
1929.25 130445
1932.12 127962
1934.99 125650
1937.86 122877
1940.73 119693
1943.6 116901
1946.47 114264
1949.34 112977
1952.21 111109
1955.09 108874
1957.96 106823
1960.83 103947
1963.7 100990
1966.57 98102.3
1969.44 96376.3
1972.31 95002.6
1975.18 93213.9
1978.05 91416.5
1980.92 90615.2
1983.79 92280
1986.67 95094.8
1989.54 96538.2
1992.41 97441
1995.28 97788.6
1998.15 98856.8
2001.02 99167.5
2003.89 98378
2006.76 97016.3
2009.63 94103.3
2012.5 92647.8
2015.37 92272.8
2018.25 91652.5
2021.12 91609.1
2023.99 91035.9
2026.86 91050.9
2029.73 90706.9
2032.6 90278.4
2035.47 89956
2038.34 90431.4
2041.21 91997.4
2044.08 94139
2046.95 95779.4
2049.83 97824.5
2052.7 100194
2055.57 105160
2058.44 108626
2061.31 110619
2064.18 112124
2067.05 113802
2069.92 115030
2072.79 116549
2075.66 118067
2078.53 119995
2081.41 121970
2084.28 123866
2087.15 125831
2090.02 127592
2092.89 128485
2095.76 128353
2098.63 127256
2101.5 126643
2104.37 127306
2107.24 128013
2110.11 128405
2112.99 128906
2115.86 129607
2118.73 130534
2121.6 130512
2124.47 129513
2127.34 127926
2130.21 125552
2133.08 122019
2135.95 117331
2138.82 111607
2141.69 107445
2144.57 104321
2147.44 100714
2150.31 97784.5
2153.18 94902.6
2156.05 92155.1
2158.92 88773.8
2161.79 83854
2164.66 82109.6
2167.53 84243.1
2170.4 86610
2173.27 88856.2
2176.15 90100.5
2179.02 90560.9
2181.89 90939.8
2184.76 90988
2187.63 91983.6
2190.5 92893
2193.37 94306.2
2196.24 95385.5
2199.11 96525.4
2201.98 97676.3
2204.85 98638.5
2207.73 99830.7
2210.6 100425
2213.47 101385
2216.34 102038
2219.21 103052
2222.08 103931
2224.95 104874
2227.82 105769
2230.69 107252
2233.56 108112
2236.43 109376
2239.31 110635
2242.18 112063
2245.05 113784
2247.92 115100
2250.79 117003
2253.66 118052
2256.53 119026
2259.4 120039
2262.27 121905
2265.14 124036
2268.01 125852
2270.89 127758
2273.76 130465
2276.63 132745
2279.5 136020
2282.37 139676
2285.24 143752
2288.11 148368
2290.98 153871
2293.85 159594
2296.72 164428
2299.59 168902
2302.47 172692
2305.34 175872
2308.21 178746
2311.08 181184
2313.95 183241
2316.82 184986
2319.69 186844
2322.56 189144
2325.43 192267
2328.3 199037
2331.17 204515
2334.05 202676
2336.92 200146
2339.79 198663
2342.66 198129
2345.53 200085
2348.4 204407
2351.27 210912
2354.14 212680
2357.01 200161
2359.88 187317
2362.75 179132
2365.63 175374
2368.5 174238
2371.37 175915
2374.24 180054
2377.11 185502
2379.98 190320
2382.85 193593
2385.72 194618
2388.59 193264
2391.46 191092
2394.33 188303
2397.21 185859
2400.08 183081
2402.95 179913
2405.82 177280
2408.69 174614
2411.56 171971
2414.43 170096
2417.3 168637
2420.17 167070
2423.04 165414
2425.91 163894
2428.79 162393
2431.66 160838
2434.53 159698
2437.4 158766
2440.27 157698
2443.14 156596
2446.01 156116
2448.88 155444
2451.75 155198
2454.62 154869
2457.49 154611
2460.36 154469
2463.24 154342
2466.11 153868
2468.98 153146
2471.85 152871
2474.72 152255
2477.59 151632
2480.46 150619
2483.33 149858
2486.2 148618
2489.07 148107
2491.95 147393
2494.82 147030
2497.69 146449
2500.56 146227
2503.43 145432
2506.3 145011
2509.17 144343
2512.04 143754
2514.91 143408
2517.78 143015
2520.65 142515
2523.53 141971
2526.4 141700
2529.27 141314
2532.14 140949
2535.01 140526
2537.88 140468
2540.75 140425
2543.62 140243
2546.49 140194
2549.36 139930
2552.23 139918
2555.1 139796
2557.98 139906
2560.85 140027
2563.72 140529
2566.59 140683
2569.46 141051
2572.33 141474
2575.2 141886
2578.07 142621
2580.94 143099
2583.81 143700
2586.68 144395
2589.56 145378
2592.43 146209
2595.3 147522
2598.17 148513
2601.04 149937
2603.91 150877
2606.78 152752
2609.65 154307
2612.52 155987
2615.39 158188
2618.26 160216
2621.14 162354
2624.01 164485
2626.88 167109
2629.75 169707
2632.62 172615
2635.49 175453
2638.36 178407
2641.23 181614
2644.1 185156
2646.97 188303
2649.84 192087
2652.72 195395
2655.59 199085
2658.46 202414
2661.33 205556
2664.2 208076
2667.07 210250
2669.94 211139
2672.81 210958
2675.68 210692
2678.55 210274
2681.42 209366
2684.3 208638
2687.17 207838
2690.04 207131
2692.91 206308
2695.78 205831
2698.65 205221
2701.52 204326
2704.39 203528
2707.26 202835
2710.13 202104
2713 201437
2715.88 200996
2718.75 199942
2721.62 199334
2724.49 198372
2727.36 197987
2730.23 197308
2733.1 196841
2735.97 195880
2738.84 195322
2741.71 194538
2744.58 193805
2747.46 193364
2750.33 192668
2753.2 191941
2756.07 191337
2758.94 190590
2761.81 189978
2764.68 189544
2767.55 188921
2770.42 188219
2773.29 187513
2776.16 187031
2779.04 186341
2781.91 185767
2784.78 184963
2787.65 184526
2790.52 183899
2793.39 183049
2796.26 182403
2799.13 181938
2802 181545
2804.87 180786
2807.74 180074
2810.62 179706
2813.49 178907
2816.36 178334
2819.23 177955
2822.1 177279
2824.97 176538
2827.84 175799
2830.71 175115
2833.58 174453
2836.45 173897
2839.32 173376
2842.2 172549
2845.07 171859
2847.94 170995
2850.81 169951
2853.68 169235
2856.55 168151
2859.42 167409
2862.29 166726
2865.16 166478
2868.03 166073
2870.9 165379
2873.78 165003
2876.65 164222
2879.52 163817
2882.39 163330
2885.26 162750
2888.13 162103
2891 161656
2893.87 161091
2896.74 160397
2899.61 159521
2902.48 159068
2905.36 158331
2908.23 157520
2911.1 156644
2913.97 155869
2916.84 154994
2919.71 154066
2922.58 153560
2925.45 152321
2928.32 151412
2931.19 150759
2934.06 150411
2936.94 150036
2939.81 149730
2942.68 149283
2945.55 148846
2948.42 148495
2951.29 148178
2954.16 147722
2957.03 146987
2959.9 146529
2962.77 145796
2965.64 145325
2968.52 144891
2971.39 144582
2974.26 144134
2977.13 143917
2980 143920
2982.87 143718
2985.74 143596
2988.61 143305
2991.48 143032
2994.35 142342
2997.22 141869
3000.1 141392
3002.97 141018
3005.84 140604
3008.71 140104
3011.58 139663
3014.45 138904
3017.32 138293
3020.19 137822
3023.06 137325
3025.93 136883
3028.8 136391
3031.68 135859
3034.55 135284
3037.42 134545
3040.29 134165
3043.16 133729
3046.03 133174
3048.9 132736
3051.77 132226
3054.64 131614
3057.51 131054
3060.38 130765
3063.26 130033
3066.13 129568
3069 128941
3071.87 128498
3074.74 128228
3077.61 127793
3080.48 126870
3083.35 126362
3086.22 126088
3089.09 125579
3091.96 125340
3094.83 124722
3097.71 124106
3100.58 123379
3103.45 122778
3106.32 122355
3109.19 122065
3112.06 121381
3114.93 120771
3117.8 120466
3120.67 119593
3123.54 119053
3126.41 118920
3129.29 118316
3132.16 117860
3135.03 117557
3137.9 116956
3140.77 116067
3143.64 115733
3146.51 115184
3149.38 114807
3152.25 114340
3155.12 113818
3157.99 113151
3160.87 112663
3163.74 112406
3166.61 111789
3169.48 111086
3172.35 110532
3175.22 110066
3178.09 109542
3180.96 109093
3183.83 108366
3186.7 107972
3189.57 107330
3192.45 106930
3195.32 106504
3198.19 105887
3201.06 105647
3203.93 105064
3206.8 104583
3209.67 104061
3212.54 103708
3215.41 103171
3218.28 102723
3221.15 102317
3224.03 102124
3226.9 101638
3229.77 101432
3232.64 100970
3235.51 100627
3238.38 100104
3241.25 100140
3244.12 99859
3246.99 99548.1
3249.86 99213.5
3252.73 98817.3
3255.61 98739.8
3258.48 98453.6
3261.35 98194.4
3264.22 98058.4
3267.09 97742.3
3269.96 97473.9
3272.83 97069.5
3275.7 96785.9
3278.57 96466.7
3281.44 96325.1
3284.31 96012.4
3287.19 95678
3290.06 95302.1
3292.93 94869.9
3295.8 94442.3
3298.67 94384.6
3301.54 94075.8
3304.41 93506.8
3307.28 93228.7
3310.15 92870
3313.02 92421.5
3315.89 92124.4
3318.77 91842.3
3321.64 91139.3
3324.51 90799.6
3327.38 90315.1
3330.25 89825.2
3333.12 89423.1
3335.99 89054.8
3338.86 88438.8
3341.73 87859.4
3344.6 87396.5
3347.47 87104.2
3350.35 86731.2
3353.22 86366.9
3356.09 85596.2
3358.96 85176
3361.83 84665.5
3364.7 84019.4
3367.57 83307
3370.44 82660.9
3373.31 82400.5
3376.18 82060.8
3379.05 81842.7
3381.93 81226.9
3384.8 80593.7
3387.67 80066.8
3390.54 79319.4
3393.41 78879.2
3396.28 78448.5
3399.15 77769.4
3402.02 77349.8
3404.89 76566.1
3407.76 76255.4
3410.63 75952.9
3413.51 75403.1
3416.38 74952.5
3419.25 74423.3
3422.12 73821.9
3424.99 73205.7
3427.86 72662.3
3430.73 72373.1
3433.6 71829.7
3436.47 71281.7
3439.34 70723.6
3442.21 70317
3445.09 69999.1
3447.96 69496.5
3450.83 69159.1
3453.7 68169.2
3456.57 68173
3459.44 67645
3462.31 67377.7
3465.18 66644
3468.05 66234.9
3470.92 65851
3473.79 65638.1
3476.67 65314.9
3479.54 64859.4
3482.41 64279.5
3485.28 63996.8
3488.15 63353.5
3491.02 63099.9
3493.89 62779.8
3496.76 62504.9
3499.63 62339
3502.5 61699.7
3505.37 61537.9
3508.25 60875.2
3511.12 60176.2
3513.99 60530.3
3516.86 60147.3
3519.73 60171.1
3522.6 59964.7
3525.47 59853.2
3528.34 59317.2
3531.21 58608.7
3534.08 58527.7
3536.95 58523.2
3539.83 58950.8
3542.7 58744.6
3545.57 58722
3548.44 58500.6
3551.31 57456.1
3554.18 57391.9
3557.05 58179.8
3559.92 57842.8
3562.79 58272.9
3565.66 58012
3568.53 57642
3571.41 56815.7
3574.28 55134.4
3577.15 57599.1
3580.02 58782.9
3582.89 58641
3585.76 58379.2
3588.63 58608.4
3591.5 57853.7
3594.37 55754.4
3597.24 58047.1
3600.11 58706
3602.98 58692.5
3605.86 59282
3608.73 59788.9
3611.6 60240.9
3614.47 58304
3617.34 58179.7
3620.21 58681.2
3623.08 59892.6
3625.95 58108.1
3628.82 60567
3631.69 62171.7
3634.56 57805.7
3637.44 58058.1
3640.31 62530.8
3643.18 63734.5
3646.05 64018.3
3648.92 63506
3651.79 62829.4
3654.66 57778.4
3657.53 56887.1
3660.4 62378.1
3663.27 61345.5
3666.15 63982.5
3669.02 64422.3
3671.89 64257.3
3674.76 61271.8
3677.63 56998.7
3680.5 58504.6
3683.37 55805.5
3686.24 61315.1
3689.11 62716.8
3691.98 62788.8
3694.85 58029
3697.72 58425.9
3700.6 62189.9
3703.47 63537.4
3706.34 62956.2
3709.21 61182.2
3712.08 62573.7
3714.95 61547.2
3717.82 57984
3720.69 59081.1
3723.56 62404.4
3726.43 61774.9
3729.3 60725.8
3732.18 59844.5
3735.05 60108.9
3737.92 58717.5
3740.79 55524.8
3743.66 54287.8
3746.53 58094.1
3749.4 56203.8
3752.27 50704.5
3755.14 54586.6
3758.01 51776.6
3760.88 56643.6
3763.76 60163.5
3766.63 59628.5
3769.5 61388.3
3772.37 60687.8
3775.24 60480.7
3778.11 59913.9
3780.98 62239.5
3783.85 62024.8
3786.72 60530.1
3789.59 61761.3
3792.46 61473.2
3795.34 61988.8
3798.21 61876.6
3801.08 60910.2
3803.95 58883.2
3806.82 56936.5
3809.69 55024.2
3812.56 57497.9
3815.43 56942.8
3818.3 60022.2
3821.17 57700
3824.04 54344.9
3826.92 55271.2
3829.79 54798.6
3832.66 58057
3835.53 58093.3
3838.4 56771.4
3841.27 55603
3844.14 52740.6
3847.01 53224.9
3849.88 55592.3
3852.75 56626.7
3855.62 56940.4
3858.5 52088.3
3861.37 45816.9
3864.24 53743.3
3867.11 56023.2
3869.98 54308.3
3872.85 53451.7
3875.72 52899.1
3878.59 51939
3881.46 53999.8
3884.33 55303.6
3887.2 53449.1
3890.08 53737.2
3892.95 51891.3
3895.82 53874.8
3898.69 52308.7
3901.56 53976.9
3904.43 53411.1
3907.3 50772.1
3910.17 50110.5
3913.04 51474.2
3915.91 53864
3918.78 53930.2
3921.66 53542.1
3924.53 52089.2
3927.4 52262.9
3930.27 52289.1
3933.14 51922.3
3936.01 52284.5
3938.88 51387.2
3941.75 51693.5
3944.62 52109.8
3947.49 51674.6
3950.36 50839.7
3953.24 50937.3
3956.11 50549.1
3958.98 50598.4
3961.85 50708.5
3964.72 50455.1
3967.59 50273.5
3970.46 49895.9
3973.33 49736.5
3976.2 49743.8
3979.07 49436.6
3981.94 48993.6
3984.82 48727.1
3987.69 48777.4
3990.56 48600.6
3993.43 48377
3996.3 48015.7
3999.17 47892.7
4002.04 47524.3
4004.91 47385.2
4007.78 47300.1
4010.65 46981.1
4013.52 46891.2
4016.4 46358.7
4019.27 46227.2
4022.14 46120.5
4025.01 45964.8
4027.88 45645.9
4030.75 45447.8
4033.62 45184.2
4036.49 45170.9
4039.36 45036.2
4042.23 44636.8
4045.1 44486.8
4047.98 44354.8
4050.85 43980.6
4053.72 43888.7
4056.59 43814.9
4059.46 43757.7
4062.33 43373.6
4065.2 43382.3
4068.07 43142
4070.94 42944.3
4073.81 42826.4
4076.68 42587.4
4079.56 42356.4
4082.43 42255.9
4085.3 42178.9
4088.17 41954.3
4091.04 41744.8
4093.91 41568.9
4096.78 41598.8
4099.65 41521.9
4102.52 41392.4
4105.39 41137.4
4108.26 40926.8
4111.14 40836.1
4114.01 40636.9
4116.88 40447.2
4119.75 40509
4122.62 40298.6
4125.49 40244.1
4128.36 40101.7
4131.23 39928.3
4134.1 39793
4136.97 39679.3
4139.84 39577.3
4142.72 39484.4
4145.59 39410.8
4148.46 39365.7
4151.33 39136.2
4154.2 38984
4157.07 38766
4159.94 38761.6
4162.81 38692.7
4165.68 38513.1
4168.55 38427.6
4171.42 38482.6
4174.3 38527.9
4177.17 38312.5
4180.04 38132.9
4182.91 38176
4185.78 37921.7
4188.65 37880.9
4191.52 37950
4194.39 37759
4197.26 37625.4
4200.13 37514.2
4203 37523.5
4205.87 37453.1
4208.75 37393.4
4211.62 37298.9
4214.49 37263.1
4217.36 37237.6
4220.23 37278.1
4223.1 37306.8
4225.97 37365.6
4228.84 37034.4
4231.71 37004.5
4234.58 36971.9
4237.45 36877.6
4240.33 36926.6
4243.2 36831.2
4246.07 36837.3
4248.94 36768.6
4251.81 36768.8
4254.68 36608.9
4257.55 36608.6
4260.42 36638.9
4263.29 36532.7
4266.16 36626.5
4269.03 36394.5
4271.91 36253.1
4274.78 36414.1
4277.65 36395
4280.52 36378.3
4283.39 36361.2
4286.26 36427.3
4289.13 36341.2
4292 36316.1
4294.87 36177.6
4297.74 36139.3
4300.61 36118.3
4303.49 36052.5
4306.36 36102.2
4309.23 36090.5
4312.1 35925
4314.97 35775.1
4317.84 35923.9
4320.71 35904.8
4323.58 35925.7
4326.45 35951.7
4329.32 35852.4
4332.19 35806.7
4335.07 35859.9
4337.94 35864.8
4340.81 35819.1
4343.68 35673
4346.55 35587.7
4349.42 35505.7
4352.29 35672.2
4355.16 35443.9
4358.03 35509.2
4360.9 35507.2
4363.77 35513.1
4366.65 35420.8
4369.52 35429.2
4372.39 35381.5
4375.26 35268.3
4378.13 35299.9
4381 35189.9
4383.87 35157.6
4386.74 35025.6
4389.61 35051.2
4392.48 34989.5
4395.35 34810.1
4398.23 34904.1
4401.1 34959.1
4403.97 34720.5
4406.84 34732.5
4409.71 34596.7
4412.58 34645.8
4415.45 34747.3
4418.32 34521.2
4421.19 34276.5
4424.06 34354.4
4426.93 34191.5
4429.81 34165.3
4432.68 34157.4
4435.55 34028.7
4438.42 33841.1
4441.29 33767.5
4444.16 33671.9
4447.03 33650.2
4449.9 33510.1
4452.77 33422.7
4455.64 33454.4
4458.51 33280.2
4461.39 33163.8
4464.26 32925.2
4467.13 32761.5
4470 32765.7
4472.87 32892.5
4475.74 32698.9
4478.61 32335.3
4481.48 32234.4
4484.35 32159.6
4487.22 31985.3
4490.09 31843.3
4492.97 31747.5
4495.84 31536.8
4498.71 31362.9
4501.58 31347.7
4504.45 31181.7
4507.32 30909.3
4510.19 30688.4
4513.06 30596.5
4515.93 30551.3
4518.8 30307.8
4521.67 30148
4524.55 29982.9
4527.42 29722.1
4530.29 29637.7
4533.16 29495.1
4536.03 29370.7
4538.9 29175.4
4541.77 28821.6
4544.64 28671.3
4547.51 28419.6
4550.38 28198
4553.25 28047.1
4556.13 27828.8
4559 27703.7
4561.87 27487.7
4564.74 27187.1
4567.61 26962.6
4570.48 26799.3
4573.35 26643
4576.22 26312.1
4579.09 26098.5
4581.96 26040.5
4584.83 25736
4587.71 25371.5
4590.58 25149.5
4593.45 25129.1
4596.32 24764.8
4599.19 24513.2
4602.06 24256.2
4604.93 23889
4607.8 23775.6
4610.67 23595.3
4613.54 23294.4
4616.41 23065.3
4619.29 22765.1
4622.16 22421.8
4625.03 22204.2
4627.9 21929.7
4630.77 21500.1
4633.64 21481.6
4636.51 21299.3
4639.38 20937.7
4642.25 20736.8
4645.12 20408.3
4647.99 20174.8
4650.87 19918.2
4653.74 19626.1
4656.61 19231.6
4659.48 19189.2
4662.35 18821
4665.22 18572.7
4668.09 18219.6
4670.96 17975
4673.83 17851.7
4676.7 17455.9
4679.57 17173.3
4682.45 16962.8
4685.32 16731.5
4688.19 16555.4
4691.06 16299.7
4693.93 16116.2
4696.8 15781.7
4699.67 15507.3
4702.54 15343.1
4705.41 14864.6
4708.28 14664.8
4711.15 14464.3
4714.03 14138.5
4716.9 13916.4
4719.77 13674
4722.64 13449.1
4725.51 13217.4
4728.38 13000.8
4731.25 12685.6
4734.12 12523.2
4736.99 12357.2
4739.86 12205.8
4742.73 11847.1
4745.6 11535.9
4748.48 11349.7
4751.35 11174.1
4754.22 10934
4757.09 10523.8
4759.96 10487.6
4762.83 10229.5
4765.7 10013.1
4768.57 9747.11
4771.44 9490.11
4774.31 9479.38
4777.18 9242.83
4780.06 9019.17
4782.93 8826.02
4785.8 8545.35
4788.67 8395.12
4791.54 8187.27
4794.41 7972.46
4797.28 7787.16
4800.15 7545.79
4803.02 7427.74
4805.89 7226.41
4808.76 7133.13
4811.64 6883.27
4814.51 6611.58
4817.38 6586.83
4820.25 6315.62
4823.12 6263.87
4825.99 6104.22
4828.86 5982.4
4831.73 5776.06
4834.6 5550.41
4837.47 5329.03
4840.34 5174.5
4843.22 5032.01
4846.09 4942.74
4848.96 4861.99
4851.83 4836.68
4854.7 4543.21
4857.57 4514.51
4860.44 4404.07
4863.31 4142.64
4866.18 4030.24
4869.05 3882.39
4871.92 3811.96
4874.8 3743.47
4877.67 3665.44
4880.54 3445.77
4883.41 3387.03
4886.28 3295.24
4889.15 3241.46
4892.02 3131.01
4894.89 3156.9
4897.76 2962.13
4900.63 2933.06
4903.5 2765.19
4906.38 2776.48
4909.25 2626.07
4912.12 2630.58
4914.99 2361.6
4917.86 2405.24
4920.73 2342.17
4923.6 2110.89
4926.47 2103.69
4929.34 2153.84
4932.21 2055.82
4935.08 1942.05
4937.96 1805.83
4940.83 1751.86
4943.7 1841.26
4946.57 1801.36
4949.44 1791.98
4952.31 1679.85
4955.18 1598.24
4958.05 1652.99
4960.92 1372.64
4963.79 1253.25
4966.67 1213.85
4969.54 1309.21
4972.41 1361.23
4975.28 1283.44
4978.15 1207.85
4981.02 1126.32
4983.89 1053.11
4986.76 1063.7
4989.63 1129.54
4992.5 986.991
4995.37 1008.61
4998.24 850.068
5001.12 983.934
5003.99 903.489
5006.86 833.338
5009.73 743.363
5012.6 764.341
5015.47 779.68
5018.34 684.535
5021.21 584.911
5024.08 581.138
5026.95 616.05
5029.82 634.476
5032.7 622.695
5035.57 578.172
5038.44 667.534
5041.31 475.351
5044.18 493.55
5047.05 545.657
5049.92 389.76
5052.79 286.112
5055.66 393.577
5058.53 359.969
5061.4 456.384
5064.28 434.794
5067.15 427
5070.02 400.864
5072.89 349.364
5075.76 301.776
5078.63 459.83
5081.5 410.641
5084.37 237.999
5087.24 338.805
5090.11 333.841
5092.98 270.03
5095.86 218.155
5098.73 298.336
5101.6 298.812
5104.47 244.321
5107.34 256.187
5110.21 276.55
5113.08 201.278
5115.95 284.216
5118.82 414.495
5121.69 278.598
5124.56 313.973
5127.44 352.636
5130.31 280.794
5133.18 294.852
5136.05 230.707
5138.92 256.307
5141.79 266.508
5144.66 324.077
5147.53 405.945
5150.4 350.914
5153.27 261.809
5156.14 384.883
5159.02 345.464
5161.89 416.903
5164.76 365.433
5167.63 226.62
5170.5 241.199
5173.37 291.702
5176.24 304.341
5179.11 438.037
5181.98 388.285
5184.85 290.117
5187.72 325.849
5190.6 461.783
5193.47 379.631
5196.34 326.99
5199.21 438.189
5202.08 339.529
5204.95 356.179
5207.82 373.299
5210.69 438.731
5213.56 393.634
5216.43 475.857
5219.3 493.836
5222.18 465.023
5225.05 404.459
5227.92 528.202
5230.79 469.744
5233.66 416.407
5236.53 430.946
5239.4 389.458
5242.27 478.549
5245.14 399.483
5248.01 559.659
5250.88 522.655
5253.75 458.315
5256.63 430.336
5259.5 442.061
5262.37 372.376
5265.24 439.8
5268.11 603.388
5270.98 570.262
5273.85 526.848
5276.72 469.383
5279.59 459.891
5282.46 476.4
5285.33 476.216
5288.21 483.836
5291.08 545.522
5293.95 490.326
5296.82 562.454
5299.69 540.775
5302.56 472.405
5305.43 545.444
5308.3 557.303
5311.17 504.082
5314.04 532.818
5316.92 547.776
5319.79 597.866
5322.66 529.592
5325.53 628.016
5328.4 659.366
5331.27 621.662
5334.14 677.863
5337.01 665.64
5339.88 685.942
5342.75 575.699
5345.62 567.409
5348.5 628.449
5351.37 633.74
5354.24 585.292
5357.11 655.317
5359.98 710.929
5362.85 653.485
5365.72 648.831
5368.59 684.052
5371.46 696.792
5374.33 779.531
5377.2 699.419
5380.07 629.492
5382.95 527.934
5385.82 473.754
5388.69 580.607
5391.56 627.927
5394.43 757.924
5397.3 655.221
5400.17 625.442
5403.04 538.686
5405.91 543.447
5408.78 595.221
5411.65 656.975
5414.53 554.908
5417.4 563.742
5420.27 688.016
5423.14 665.236
5426.01 565.128
5428.88 581.598
5431.75 596.217
5434.62 633.484
5437.49 663.969
5440.36 571.158
5443.23 532.275
5446.11 528.353
5448.98 571.798
5451.85 590.856
5454.72 554.396
5457.59 460.8
5460.46 421.967
5463.33 608.921
5466.2 610.096
5469.07 581.014
5471.94 568.686
5474.81 551.691
5477.69 501.993
5480.56 437.771
5483.43 427.273
5486.3 527.952
5489.17 496.556
5492.04 494.069
5494.91 522.143
5497.78 622.002
5500.65 554.096
5503.52 616.072
5506.4 719.293
5509.27 532.855
5512.14 660.577
5515.01 528.986
5517.88 381.373
5520.75 446.239
5523.62 405.808
5526.49 451.16
5529.36 482.66
5532.23 524.871
5535.1 463.422
5537.97 556.523
5540.85 578.129
5543.72 460.495
5546.59 422.707
5549.46 410.867
5552.33 440.677
5555.2 370.444
5558.07 425.872
5560.94 439.966
5563.81 487.886
5566.68 440.379
5569.55 549.701
5572.43 599.727
5575.3 450.4
5578.17 443.447
5581.04 377.308
5583.91 426.74
5586.78 509.438
5589.65 367.418
5592.52 394.799
5595.39 564.453
5598.26 612.808
5601.13 608.301
5604.01 587.956
5606.88 505.164
5609.75 468.461
5612.62 494.654
5615.49 424.071
5618.36 529.405
5621.23 505.023
5624.1 503.35
5626.97 459.489
5629.84 533.446
5632.71 558.558
5635.59 542.615
5638.46 484.677
5641.33 516.386
5644.2 472.764
5647.07 517.559
5649.94 491.605
5652.81 575.225
5655.68 504.43
5658.55 413.552
5661.42 431.535
5664.29 399.912
5667.17 501.1
5670.04 506.466
5672.91 435.391
5675.78 501.093
5678.65 495.12
5681.52 503.385
5684.39 464.314
5687.26 498.905
5690.13 558.296
5693 506.31
5695.87 514.017
5698.75 385.457
5701.62 454.738
5704.49 461.781
5707.36 474.565
5710.23 496.238
5713.1 522.808
5715.97 463.439
5718.84 472.598
5721.71 530.268
5724.58 514.563
5727.45 539.822
5730.33 473.806
5733.2 351.793
5736.07 498.787
5738.94 615.938
5741.81 509.822
5744.68 492.261
5747.55 290.292
5750.42 436.704
5753.29 425.392
5756.16 401.126
5759.03 379.476
5761.9 414.367
5764.78 615.221
5767.65 662.51
5770.52 555.951
5773.39 547.325
5776.26 405.75
5779.13 409.27
5782 436.298
5784.87 463.501
5787.74 543.291
5790.61 613.927
5793.48 588.163
5796.36 480.789
5799.23 534.872
5802.1 372.249
5804.97 456.075
5807.84 489.175
5810.71 506.721
5813.58 514.11
5816.45 387.245
5819.32 347.931
5822.19 482.479
5825.06 461.489
5827.94 499.26
5830.81 548.121
5833.68 484.211
5836.55 400.652
5839.42 537.919
5842.29 381.148
5845.16 426.945
5848.03 492.589
5850.9 431.602
5853.77 426.575
5856.65 447.978
5859.52 510.529
5862.39 572.724
5865.26 522.686
5868.13 429.204
5871 500.452
5873.87 506.863
5876.74 362.738
