scanname 扫描020
timestamp 1/1/1970 01:16
scancount 1
laserwavenum 850.5
measurementstate Unknown
scanmode Identification
snr 17.5782 17.5782 17.5782
replacelist 0
peaks 10
785.473 0.614069 0 2.31603 0.000558723
865.454 0.169438 0 3.98192 0.000188241
1006.61 0.672139 0 11.2171 0.00054825
1085.64 0.518834 0 2.41894 0.00019206
1257.07 0.280775 0 46.5656 0.0015169
1410.47 0.0403957 0 1.79471 6.6454e-05
1557.3 0.0263097 0 0.788211 4.68784e-05
1698.44 0.0239785 0 1.18627 5.64062e-05
2903.92 0.0273756 0 0.651251 4.40987e-05
2961.57 0.0970479 0 12.4885 0.00042101
finalresult Pure single 1A15594	0.0525238
spectrum 2048
0 5.38338
2.86447 3.32226
5.72895 -0.0440527
8.59342 -0.689372
11.4579 -1.47605
14.3224 0.985482
17.1868 -2.6592
20.0513 0.668326
22.9158 1.54616
25.7803 0.480591
28.6447 6.05385
31.5092 0.231889
34.3737 -2.56829
37.2382 -1.57991
40.1026 -0.552404
42.9671 -2.26765
45.8316 -0.95916
48.696 7.33698
51.5605 -0.533111
54.425 -2.93536
57.2895 -2.18152
60.1539 3.19498
63.0184 3.63098
65.8829 0.425242
68.7474 -2.51444
71.6118 -2.6314
74.4763 -1.93803
77.3408 1.4108
80.2053 1.63239
83.0697 1.06799
85.9342 -2.98246
88.7987 -2.22299
91.6632 2.71838
94.5276 2.02609
97.3921 -0.455296
100.257 3.265
103.121 -2.22088
105.986 -0.351803
108.85 0.751026
111.714 -1.89426
114.579 -3.08655
117.443 3.27721
120.308 -2.90287
123.172 -3.0028
126.037 -3.20322
128.901 -2.6929
131.766 3.48195
134.63 0.480446
137.495 1.03178
140.359 2.55345
143.224 -2.00904
146.088 -0.353599
148.953 -1.74364
151.817 -3.64635
154.682 -1.47508
157.546 -0.758501
160.411 -1.78748
163.275 5.72723
166.139 -1.17261
169.004 -1.1858
171.868 5.11017
174.733 1.38994
177.597 8.07082
180.462 -0.267979
183.326 -2.09429
186.191 1.59951
189.055 4.4407
191.92 -1.17066
194.784 -2.7413
197.649 4.32666
200.513 0.507088
203.378 -0.784533
206.242 -0.20606
209.107 -0.0265877
211.971 5.4266
214.836 3.21114
217.7 2.9181
220.564 0.757942
223.429 -2.41435
226.293 -4.27142
229.158 -2.84971
232.022 -0.157119
234.887 -0.00636639
237.751 -2.15347
240.616 -1.65518
243.48 3.42412
246.345 -1.67773
249.209 -3.12674
252.074 -4.69426
254.938 -3.39641
257.803 0.358063
260.667 -0.956849
263.532 3.67213
266.396 2.95175
269.26 -1.75343
272.125 -2.44296
274.989 -2.53301
277.854 5.92841
280.718 2.44962
283.583 -1.02157
286.447 -2.4465
289.312 2.49837
292.176 -1.05029
295.041 -2.6543
297.905 -3.01936
300.77 -0.799918
303.634 5.14211
306.499 6.46843
309.363 1.28153
312.228 7.27167
315.092 0.94465
317.957 1.69826
320.821 -1.53403
323.686 0.875903
326.55 -3.01424
329.414 -3.78789
332.279 -2.07233
335.143 4.55614
338.008 -3.98759
340.872 0.844595
343.737 0.998149
346.601 1.5929
349.466 -2.86518
352.33 -2.81078
355.195 1.41328
358.059 -1.68121
360.924 -0.43043
363.788 -0.163676
366.653 0.945333
369.517 0.416851
372.382 6.76051
375.246 -0.694313
378.111 4.23949
380.975 1.51226
383.839 -0.973872
386.704 -2.85582
389.568 -1.46072
392.433 -0.596131
395.297 -0.21042
398.162 -2.36858
401.026 -0.920543
403.891 2.85096
406.755 -1.82594
409.62 -5.71126
412.484 -3.91131
415.349 1.18982
418.213 1.60549
421.078 -1.27432
423.942 1.44599
426.807 -0.461133
429.671 1.5483
432.535 -1.63923
435.4 -2.4849
438.264 -2.28914
441.129 -0.306864
443.993 2.61661
446.858 -2.38379
449.722 3.10446
452.587 0.268798
455.451 -0.294603
458.316 2.31464
461.18 2.24812
464.045 -1.35835
466.909 -2.75853
469.774 2.82011
472.638 6.56832
475.503 1.76242
478.367 -1.35084
481.232 1.53557
484.096 9.07274
486.961 3.68455
489.825 -1.35801
492.689 -0.53784
495.554 3.20108
498.418 3.2164
501.283 3.14036
504.147 5.13169
507.012 -0.371027
509.876 -2.68772
512.741 -1.72508
515.605 -0.311248
518.47 -1.34031
521.334 1.79786
524.199 -1.11733
527.063 0.0956948
529.928 7.48736
532.792 2.732
535.657 2.05765
538.521 2.76928
541.385 1.62657
544.25 5.905
547.115 -1.97563
549.979 -1.86557
552.843 2.22699
555.708 0.165685
558.572 1.02113
561.437 3.73821
564.301 1.83753
567.166 1.41443
570.03 1.09617
572.895 2.539
575.759 2.00877
578.624 -1.8983
581.488 -2.69409
584.353 -1.66503
587.217 0.856889
590.082 -0.0948411
592.946 0.302239
595.81 2.25957
598.675 1.23732
601.539 -1.20502
604.404 -0.493706
607.268 -0.057677
610.133 2.20365
612.997 0.695699
615.862 1.27449
618.726 1.28444
621.591 0.404498
624.455 0.755823
627.32 1.39994
630.184 1.15543
633.049 0.98705
635.913 0.617215
638.778 0.671116
641.642 0.960807
644.507 1.10309
647.371 1.42612
650.235 1.63657
653.1 1.60925
655.964 2.0313
658.829 1.9095
661.693 2.12559
664.558 2.24286
667.422 1.93812
670.287 1.75843
673.151 2.01105
676.016 2.13018
678.88 2.09033
681.745 2.00655
684.609 2.35186
687.474 2.32094
690.338 2.11197
693.203 2.14531
696.067 2.26803
698.932 2.30175
701.796 2.26339
704.66 2.15952
707.525 2.18117
710.389 1.94592
713.254 1.73696
716.118 1.60947
718.983 1.6165
721.847 1.85277
724.712 1.77426
727.576 1.99827
730.441 2.14303
733.305 2.26618
736.17 2.37627
739.034 2.54323
741.899 2.78076
744.763 2.91632
747.628 2.99179
750.492 3.18402
753.357 3.44435
756.221 3.68213
759.086 3.83569
761.95 4.13804
764.814 4.3976
767.679 4.79989
770.543 5.2379
773.408 5.43664
776.272 5.6565
779.137 5.97435
782.001 5.93566
784.866 6.20569
787.73 6.17466
790.595 5.93825
793.459 5.7502
796.324 5.51003
799.188 5.11779
802.053 4.57166
804.917 4.16366
807.782 3.86134
810.646 3.56708
813.51 3.25142
816.375 3.00459
819.239 2.79654
822.104 2.42781
824.968 2.04262
827.833 1.75542
830.697 1.53266
833.562 1.46
836.426 1.35637
839.291 1.28902
842.155 1.27094
845.02 1.27597
847.884 1.28249
850.749 1.33186
853.613 1.42116
856.478 1.57066
859.342 1.60677
862.207 1.65158
865.071 1.70796
867.935 1.68943
870.8 1.64722
873.664 1.55862
876.529 1.46267
879.393 1.36963
882.258 1.23453
885.122 1.13427
887.987 1.05823
890.851 1.0235
893.716 0.969155
896.58 0.94226
899.445 0.932768
902.309 0.921808
905.174 0.912767
908.038 0.926145
910.903 0.938027
913.767 0.957065
916.632 0.979372
919.496 0.988672
922.36 1.04882
925.225 1.09735
928.089 1.15073
930.954 1.21156
933.818 1.29083
936.683 1.36724
939.547 1.44395
942.412 1.53417
945.276 1.63926
948.141 1.7634
951.005 1.87223
953.87 2.01123
956.734 2.16754
959.599 2.33094
962.463 2.52234
965.328 2.7124
968.192 2.90831
971.057 3.1484
973.921 3.42243
976.785 3.74539
979.65 4.06943
982.514 4.4082
985.379 4.79934
988.243 5.1819
991.108 5.51675
993.972 5.86139
996.837 6.18036
999.701 6.4374
1002.57 6.62906
1005.43 6.72725
1008.29 6.72488
1011.16 6.60652
1014.02 6.40509
1016.89 6.14083
1019.75 5.89617
1022.62 5.72925
1025.48 5.57811
1028.35 5.48606
1031.21 5.39348
1034.07 5.35707
1036.94 5.30757
1039.8 5.32485
1042.67 5.30112
1045.53 5.30809
1048.4 5.32372
1051.26 5.33451
1054.13 5.29568
1056.99 5.37236
1059.86 5.3438
1062.72 5.3386
1065.58 5.32113
1068.45 5.25597
1071.31 5.24219
1074.18 5.16114
1077.04 5.08638
1079.91 5.03419
1082.77 4.9368
1085.64 4.77453
1088.5 4.52581
1091.36 4.33159
1094.23 4.11949
1097.09 3.84649
1099.96 3.56823
1102.82 3.31067
1105.69 3.07324
1108.55 2.88145
1111.42 2.67407
1114.28 2.49982
1117.14 2.36456
1120.01 2.278
1122.87 2.16137
1125.74 2.09394
1128.6 2.05199
1131.47 2.01259
1134.33 1.92789
1137.2 1.89715
1140.06 1.88314
1142.92 1.85426
1145.79 1.79304
1148.65 1.76899
1151.52 1.76931
1154.38 1.76076
1157.25 1.70908
1160.11 1.69409
1162.98 1.6775
1165.84 1.65559
1168.71 1.64783
1171.57 1.64398
1174.43 1.60191
1177.3 1.5875
1180.16 1.53852
1183.03 1.51742
1185.89 1.53008
1188.76 1.50183
1191.62 1.484
1194.49 1.4503
1197.35 1.44478
1200.21 1.42457
1203.08 1.40127
1205.94 1.40577
1208.81 1.40064
1211.67 1.37169
1214.54 1.34563
1217.4 1.32619
1220.27 1.31133
1223.13 1.31051
1225.99 1.23868
1228.86 1.23939
1231.72 1.17731
1234.59 1.14886
1237.45 1.14554
1240.32 1.16603
1243.18 1.20775
1246.05 1.27936
1248.91 1.47345
1251.78 1.93581
1254.64 2.79091
1257.5 3.33323
1260.37 2.85731
1263.23 1.97876
1266.1 1.25174
1268.96 0.842116
1271.83 0.610038
1274.69 0.50155
1277.56 0.43331
1280.42 0.380397
1283.28 0.340604
1286.15 0.328537
1289.01 0.324468
1291.88 0.297594
1294.74 0.279376
1297.61 0.280076
1300.47 0.275591
1303.34 0.262237
1306.2 0.25618
1309.06 0.248809
1311.93 0.246462
1314.79 0.246079
1317.66 0.228964
1320.52 0.22723
1323.39 0.228785
1326.25 0.231525
1329.12 0.217737
1331.98 0.218084
1334.84 0.222592
1337.71 0.234225
1340.57 0.232446
1343.44 0.210792
1346.3 0.226327
1349.17 0.243725
1352.03 0.221158
1354.9 0.214855
1357.76 0.240487
1360.62 0.237933
1363.49 0.245405
1366.35 0.231635
1369.22 0.26387
1372.08 0.240972
1374.95 0.243197
1377.81 0.228188
1380.68 0.242247
1383.54 0.225698
1386.41 0.252491
1389.27 0.264103
1392.13 0.288671
1395 0.329836
1397.86 0.369296
1400.73 0.358429
1403.59 0.370726
1406.46 0.372759
1409.32 0.371634
1412.19 0.41335
1415.05 0.408324
1417.91 0.40095
1420.78 0.313481
1423.64 0.279629
1426.51 0.268793
1429.37 0.259089
1432.24 0.242449
1435.1 0.284632
1437.97 0.281696
1440.83 0.247025
1443.69 0.256788
1446.56 0.270797
1449.42 0.271748
1452.29 0.258575
1455.15 0.28966
1458.02 0.271649
1460.88 0.226523
1463.75 0.235301
1466.61 0.21238
1469.47 0.236986
1472.34 0.271934
1475.2 0.23719
1478.07 0.201492
1480.93 0.218915
1483.8 0.221727
1486.66 0.233104
1489.53 0.225728
1492.39 0.200289
1495.26 0.219692
1498.12 0.233498
1500.98 0.203228
1503.85 0.229471
1506.71 0.305569
1509.58 0.228153
1512.44 0.234321
1515.31 0.250065
1518.17 0.25196
1521.04 0.29254
1523.9 0.251338
1526.76 0.234491
1529.63 0.212943
1532.49 0.23496
1535.36 0.219867
1538.22 0.295774
1541.09 0.293595
1543.95 0.241564
1546.82 0.211436
1549.68 0.232882
1552.54 0.234093
1555.41 0.260868
1558.27 0.344155
1561.14 0.219098
1564 0.2038
1566.87 0.213982
1569.73 0.211689
1572.6 0.206769
1575.46 0.257915
1578.33 0.211139
1581.19 0.206841
1584.05 0.202871
1586.92 0.210825
1589.78 0.189109
1592.65 0.20818
1595.51 0.213339
1598.38 0.224709
1601.24 0.221958
1604.11 0.206395
1606.97 0.208345
1609.83 0.231449
1612.7 0.219139
1615.56 0.254789
1618.43 0.239245
1621.29 0.264677
1624.16 0.260125
1627.02 0.237711
1629.89 0.233286
1632.75 0.267547
1635.61 0.264729
1638.48 0.217685
1641.34 0.204027
1644.21 0.240678
1647.07 0.277343
1649.94 0.257172
1652.8 0.325183
1655.67 0.234951
1658.53 0.208634
1661.39 0.225829
1664.26 0.225185
1667.12 0.232981
1669.99 0.242282
1672.85 0.229384
1675.72 0.235126
1678.58 0.204425
1681.45 0.222106
1684.31 0.236033
1687.18 0.185196
1690.04 0.184963
1692.9 0.189615
1695.77 0.243237
1698.63 0.28218
1701.5 0.234426
1704.36 0.207906
1707.23 0.174842
1710.09 0.176579
1712.96 0.202326
1715.82 0.235974
1718.68 0.204951
1721.55 0.177515
1724.41 0.175933
1727.28 0.171417
1730.14 0.197918
1733.01 0.264501
1735.87 0.186832
1738.74 0.187163
1741.6 0.173603
1744.46 0.182978
1747.33 0.181751
1750.19 0.203496
1753.06 0.178374
1755.92 0.189887
1758.79 0.180046
1761.65 0.189049
1764.52 0.167714
1767.38 0.205615
1770.24 0.191696
1773.11 0.183303
1775.97 0.180683
1778.84 0.175905
1781.7 0.165873
1784.57 0.161725
1787.43 0.155013
1790.3 0.189303
1793.16 0.176858
1796.02 0.164206
1798.89 0.157367
1801.75 0.164925
1804.62 0.153882
1807.48 0.128828
1810.35 0.154786
1813.21 0.161212
1816.08 0.151741
1818.94 0.140603
1821.81 0.157864
1824.67 0.204461
1827.53 0.154802
1830.4 0.157698
1833.26 0.157973
1836.13 0.142985
1838.99 0.153777
1841.86 0.138896
1844.72 0.167435
1847.59 0.146233
1850.45 0.155118
1853.31 0.166121
1856.18 0.143454
1859.04 0.143267
1861.91 0.149762
1864.77 0.154538
1867.64 0.187035
1870.5 0.176103
1873.37 0.13738
1876.23 0.13637
1879.09 0.150898
1881.96 0.169046
1884.82 0.1516
1887.69 0.14804
1890.55 0.155638
1893.42 0.163778
1896.28 0.150779
1899.15 0.133275
1902.01 0.156065
1904.87 0.166017
1907.74 0.146242
1910.6 0.143763
1913.47 0.16966
1916.33 0.176798
1919.2 0.163171
1922.06 0.130453
1924.93 0.147674
1927.79 0.15947
1930.66 0.145637
1933.52 0.165797
1936.38 0.183903
1939.25 0.184791
1942.11 0.173143
1944.98 0.170574
1947.84 0.157415
1950.71 0.17355
1953.57 0.173845
1956.44 0.136147
1959.3 0.192273
1962.16 0.175449
1965.03 0.186462
1967.89 0.194996
1970.76 0.181082
1973.62 0.167149
1976.49 0.182099
1979.35 0.17941
1982.22 0.196869
1985.08 0.187074
1987.94 0.182601
1990.81 0.133538
1993.67 0.15544
1996.54 0.173739
1999.4 0.173631
2002.27 0.154482
2005.13 0.15981
2008 0.141544
2010.86 0.158312
2013.72 0.144447
2016.59 0.182081
2019.45 0.152221
2022.32 0.191663
2025.18 0.183647
2028.05 0.148427
2030.91 0.157347
2033.78 0.158082
2036.64 0.141874
2039.51 0.15427
2042.37 0.180421
2045.23 0.187022
2048.1 0.156264
2050.96 0.143562
2053.83 0.155539
2056.69 0.147056
2059.56 0.125903
2062.42 0.164541
2065.29 0.154355
2068.15 0.166879
2071.01 0.159448
2073.88 0.165314
2076.74 0.1325
2079.61 0.128774
2082.47 0.157827
2085.34 0.171453
2088.2 0.149808
2091.07 0.129822
2093.93 0.145958
2096.79 0.167489
2099.66 0.159102
2102.52 0.149354
2105.39 0.139937
2108.25 0.139983
2111.12 0.144172
2113.98 0.165773
2116.85 0.135409
2119.71 0.145383
2122.58 0.13825
2125.44 0.150039
2128.3 0.145105
2131.17 0.168
2134.03 0.170356
2136.9 0.132911
2139.76 0.154181
2142.63 0.148468
2145.49 0.146108
2148.36 0.154843
2151.22 0.148359
2154.08 0.17808
2156.95 0.140168
2159.81 0.147867
2162.68 0.155309
2165.54 0.193416
2168.41 0.143768
2171.27 0.152771
2174.14 0.179615
2177 0.172278
2179.86 0.165768
2182.73 0.2029
2185.59 0.207482
2188.46 0.173533
2191.32 0.136168
2194.19 0.15053
2197.05 0.135969
2199.92 0.183509
2202.78 0.194823
2205.64 0.151308
2208.51 0.172461
2211.37 0.152621
2214.24 0.144054
2217.1 0.151434
2219.97 0.16139
2222.83 0.134796
2225.7 0.175492
2228.56 0.153227
2231.43 0.16468
2234.29 0.140676
2237.15 0.13672
2240.02 0.157396
2242.88 0.142153
2245.75 0.192007
2248.61 0.153744
2251.48 0.127412
2254.34 0.159138
2257.21 0.133419
2260.07 0.141143
2262.93 0.156873
2265.8 0.141922
2268.66 0.168451
2271.53 0.140405
2274.39 0.172592
2277.26 0.154969
2280.12 0.142115
2282.99 0.162728
2285.85 0.163606
2288.71 0.141778
2291.58 0.15378
2294.44 0.143205
2297.31 0.138196
2300.17 0.14864
2303.04 0.127557
2305.9 0.125584
2308.77 0.130435
2311.63 0.162402
2314.49 0.135186
2317.36 0.129852
2320.22 0.149379
2323.09 0.171176
2325.95 0.151798
2328.82 0.156533
2331.68 0.15444
2334.55 0.153703
2337.41 0.155501
2340.28 0.167408
2343.14 0.129209
2346 0.129957
2348.87 0.135713
2351.73 0.145632
2354.6 0.139801
2357.46 0.143638
2360.33 0.178238
2363.19 0.165987
2366.06 0.160719
2368.92 0.158074
2371.78 0.152398
2374.65 0.129903
2377.51 0.125589
2380.38 0.133291
2383.24 0.122988
2386.11 0.118543
2388.97 0.113713
2391.84 0.140574
2394.7 0.130665
2397.56 0.105477
2400.43 0.123982
2403.29 0.148122
2406.16 0.120956
2409.02 0.0964217
2411.89 0.112431
2414.75 0.127509
2417.62 0.13861
2420.48 0.135656
2423.34 0.11643
2426.21 0.11498
2429.07 0.132421
2431.94 0.110237
2434.8 0.112504
2437.67 0.12355
2440.53 0.143205
2443.4 0.133766
2446.26 0.133752
2449.12 0.14242
2451.99 0.140832
2454.85 0.109292
2457.72 0.100809
2460.58 0.120162
2463.45 0.109674
2466.31 0.119109
2469.18 0.13582
2472.04 0.122367
2474.91 0.138969
2477.77 0.122687
2480.63 0.104491
2483.5 0.13072
2486.36 0.121102
2489.23 0.131227
2492.09 0.144982
2494.96 0.128046
2497.82 0.136495
2500.69 0.142412
2503.55 0.130726
2506.41 0.126435
2509.28 0.11975
2512.14 0.130163
2515.01 0.137733
2517.87 0.13817
2520.74 0.133233
2523.6 0.119235
2526.47 0.124184
2529.33 0.125532
2532.19 0.137453
2535.06 0.12401
2537.92 0.121723
2540.79 0.108043
2543.65 0.103084
2546.52 0.122764
2549.38 0.127
2552.25 0.138124
2555.11 0.122783
2557.98 0.122591
2560.84 0.120717
2563.7 0.126757
2566.57 0.118792
2569.43 0.118907
2572.3 0.126768
2575.16 0.115322
2578.03 0.121066
2580.89 0.108099
2583.76 0.142124
2586.62 0.114256
2589.48 0.124242
2592.35 0.124969
2595.21 0.128949
2598.08 0.0920265
2600.94 0.123343
2603.81 0.121047
2606.67 0.120919
2609.54 0.12454
2612.4 0.127651
2615.26 0.119781
2618.13 0.123098
2620.99 0.129077
2623.86 0.126393
2626.72 0.123764
2629.59 0.122373
2632.45 0.118834
2635.32 0.122712
2638.18 0.125713
2641.04 0.119504
2643.91 0.121523
2646.77 0.115935
2649.64 0.13512
2652.5 0.126927
2655.37 0.122294
2658.23 0.117749
2661.1 0.113199
2663.96 0.114542
2666.82 0.125553
2669.69 0.117738
2672.55 0.122763
2675.42 0.129112
2678.28 0.123085
2681.15 0.117844
2684.01 0.119869
2686.88 0.124113
2689.74 0.120946
2692.61 0.118893
2695.47 0.112385
2698.33 0.117838
2701.2 0.130264
2704.06 0.130934
2706.93 0.118878
2709.79 0.127201
2712.66 0.119934
2715.52 0.124417
2718.39 0.109452
2721.25 0.11176
2724.11 0.11259
2726.98 0.118094
2729.84 0.11622
2732.71 0.1193
2735.57 0.121072
2738.44 0.117215
2741.3 0.123327
2744.17 0.137009
2747.03 0.127481
2749.89 0.121107
2752.76 0.125038
2755.62 0.120949
2758.49 0.121816
2761.35 0.12601
2764.22 0.115842
2767.08 0.114737
2769.95 0.119032
2772.81 0.132799
2775.68 0.125849
2778.54 0.126882
2781.4 0.142254
2784.27 0.125704
2787.13 0.132704
2790 0.13426
2792.86 0.132498
2795.73 0.140768
2798.59 0.140869
2801.46 0.146877
2804.32 0.150858
2807.18 0.156452
2810.05 0.150311
2812.91 0.14889
2815.78 0.14498
2818.64 0.153476
2821.51 0.137381
2824.37 0.131598
2827.24 0.154569
2830.1 0.145791
2832.96 0.150766
2835.83 0.157186
2838.69 0.164371
2841.56 0.141706
2844.42 0.138978
2847.29 0.162556
2850.15 0.170151
2853.02 0.177325
2855.88 0.164148
2858.74 0.161952
2861.61 0.17444
2864.47 0.161004
2867.34 0.158783
2870.2 0.164855
2873.07 0.172843
2875.93 0.171933
2878.8 0.17282
2881.66 0.179384
2884.53 0.184207
2887.39 0.184815
2890.25 0.198392
2893.12 0.220205
2895.98 0.234948
2898.85 0.250975
2901.71 0.283463
2904.58 0.286024
2907.44 0.268585
2910.31 0.24623
2913.17 0.23743
2916.03 0.234455
2918.9 0.24527
2921.76 0.227084
2924.63 0.225446
2927.49 0.245013
2930.36 0.244535
2933.22 0.214444
2936.09 0.239964
2938.95 0.256411
2941.81 0.278606
2944.68 0.316799
2947.54 0.370683
2950.41 0.483282
2953.27 0.623999
2956.14 0.786791
2959 0.978066
2961.87 1.06134
2964.73 0.951038
2967.59 0.756454
2970.46 0.562959
2973.32 0.445171
2976.19 0.346618
2979.05 0.276868
2981.92 0.237627
2984.78 0.232264
2987.65 0.212861
2990.51 0.209309
2993.38 0.189749
2996.24 0.176659
2999.1 0.186768
3001.97 0.195141
3004.83 0.196041
3007.7 0.190738
3010.56 0.19967
3013.43 0.188558
3016.29 0.162339
3019.16 0.185808
3022.02 0.16153
3024.88 0.170868
3027.75 0.16277
3030.61 0.154876
3033.48 0.172988
3036.34 0.161126
3039.21 0.171082
3042.07 0.179059
3044.94 0.171614
3047.8 0.164813
3050.66 0.169689
3053.53 0.166136
3056.39 0.164336
3059.26 0.182715
3062.12 0.169987
3064.99 0.170081
3067.85 0.16073
3070.72 0.165119
3073.58 0.168316
3076.44 0.184085
3079.31 0.166215
3082.17 0.172743
3085.04 0.169961
3087.9 0.160457
3090.77 0.155133
3093.63 0.152598
3096.5 0.178112
3099.36 0.187871
3102.23 0.172047
3105.09 0.153515
3107.95 0.161665
3110.82 0.196819
3113.68 0.169435
3116.55 0.17155
3119.41 0.177126
3122.28 0.17947
3125.14 0.163865
3128.01 0.178698
3130.87 0.188766
3133.73 0.178036
3136.6 0.174797
3139.46 0.142175
3142.33 0.16667
3145.19 0.169417
3148.06 0.157304
3150.92 0.164233
3153.79 0.161688
3156.65 0.177896
3159.51 0.180176
3162.38 0.166486
3165.24 0.176078
3168.11 0.177281
3170.97 0.187422
3173.84 0.188109
3176.7 0.18594
3179.57 0.180507
3182.43 0.157803
3185.29 0.148187
3188.16 0.162454
3191.02 0.17726
3193.89 0.175177
3196.75 0.171729
3199.62 0.157006
3202.48 0.167746
3205.35 0.180119
3208.21 0.206859
3211.07 0.179513
3213.94 0.179554
3216.8 0.177598
3219.67 0.1598
3222.53 0.216682
3225.4 0.188231
3228.26 0.177478
3231.13 0.17688
3233.99 0.188506
3236.86 0.166611
3239.72 0.161863
3242.58 0.169829
3245.45 0.19616
3248.31 0.197591
3251.18 0.193146
3254.04 0.170309
3256.91 0.205271
3259.77 0.185778
3262.64 0.193564
3265.5 0.198846
3268.36 0.191128
3271.23 0.205032
3274.09 0.196813
3276.96 0.18801
3279.82 0.193349
3282.69 0.178488
3285.55 0.177916
3288.42 0.174267
3291.28 0.196909
3294.14 0.189793
3297.01 0.173013
3299.87 0.180325
3302.74 0.205334
3305.6 0.179102
3308.47 0.217543
3311.33 0.194064
3314.2 0.199719
3317.06 0.176619
3319.93 0.162827
3322.79 0.18499
3325.65 0.186136
3328.52 0.19449
3331.38 0.180109
3334.25 0.187811
3337.11 0.200274
3339.98 0.183191
3342.84 0.171
3345.71 0.170902
3348.57 0.193207
3351.43 0.160722
3354.3 0.176285
3357.16 0.188905
3360.03 0.205919
3362.89 0.168779
3365.76 0.200009
3368.62 0.193925
3371.49 0.208746
3374.35 0.197438
3377.21 0.205227
3380.08 0.192369
3382.94 0.188727
3385.81 0.134831
3388.67 0.142508
3391.54 0.183234
3394.4 0.193064
3397.27 0.18932
3400.13 0.166297
3402.99 0.156739
3405.86 0.193946
3408.72 0.189509
3411.59 0.187008
3414.45 0.18083
3417.32 0.178246
3420.18 0.175644
3423.05 0.166342
3425.91 0.178315
3428.77 0.190371
3431.64 0.193116
3434.5 0.20425
3437.37 0.194384
3440.23 0.205206
3443.1 0.206292
3445.96 0.187093
3448.83 0.169645
3451.69 0.164753
3454.56 0.212478
3457.42 0.179065
3460.28 0.182652
3463.15 0.17785
3466.01 0.184245
3468.88 0.194795
3471.74 0.195615
3474.61 0.208836
3477.47 0.203738
3480.34 0.184791
3483.2 0.152757
3486.06 0.183859
3488.93 0.172931
3491.79 0.175086
3494.66 0.175261
3497.52 0.196738
3500.39 0.166909
3503.25 0.132418
3506.12 0.189507
3508.98 0.197268
3511.84 0.177387
3514.71 0.17221
3517.57 0.138939
3520.44 0.115326
3523.3 0.161357
3526.17 0.156578
3529.03 0.207092
3531.9 0.217069
3534.76 0.188725
3537.62 0.182108
3540.49 0.193558
3543.35 0.134978
3546.22 0.167638
3549.08 0.180586
3551.95 0.171743
3554.81 0.164296
3557.68 0.166244
3560.54 0.159798
3563.41 0.185171
3566.27 0.166262
3569.13 0.139899
3572 0.137042
3574.86 0.168446
3577.73 0.130036
3580.59 0.158406
3583.46 0.168796
3586.32 0.186088
3589.19 0.193593
3592.05 0.178353
3594.91 0.170584
3597.78 0.187774
3600.64 0.183135
3603.51 0.181315
3606.37 0.184003
3609.24 0.161924
3612.1 0.16392
3614.97 0.169208
3617.83 0.149406
3620.69 0.111632
3623.56 0.157058
3626.42 0.205566
3629.29 0.146847
3632.15 0.138614
3635.02 0.173227
3637.88 0.177967
3640.75 0.135836
3643.61 0.195565
3646.47 0.211914
3649.34 0.198313
3652.2 0.154055
3655.07 0.171081
3657.93 0.148136
3660.8 0.118237
3663.66 0.126119
3666.53 0.134647
3669.39 0.202862
3672.26 0.194082
3675.12 0.177177
3677.98 0.181252
3680.85 0.155729
3683.71 0.108319
3686.58 0.171591
3689.44 0.133602
3692.31 0.11251
3695.17 0.116885
3698.04 0.115414
3700.9 0.129952
3703.76 0.157617
3706.63 0.143595
3709.49 0.163257
3712.36 0.136699
3715.22 0.149774
3718.09 0.14122
3720.95 0.154935
3723.82 0.176259
3726.68 0.175998
3729.54 0.144358
3732.41 0.14337
3735.27 0.172612
3738.14 0.124073
3741 0.116113
3743.87 0.189262
3746.73 0.192182
3749.6 0.192507
3752.46 0.127014
3755.32 0.0993662
3758.19 0.157471
3761.05 0.135087
3763.92 0.144194
3766.78 0.123402
3769.65 0.100204
3772.51 0.0955966
3775.38 0.10244
3778.24 0.113788
3781.11 0.0991024
3783.97 0.121344
3786.83 0.107614
3789.7 0.0971436
3792.56 0.112359
3795.43 0.0920529
3798.29 0.148608
3801.16 0.175794
3804.02 0.157069
3806.89 0.113033
3809.75 0.0869624
3812.61 0.0817536
3815.48 0.0993926
3818.34 0.15745
3821.21 0.125936
3824.07 0.105913
3826.94 0.128116
3829.8 0.142441
3832.67 0.114038
3835.53 0.140058
3838.39 0.162088
3841.26 0.110925
3844.12 0.0858789
3846.99 0.0740028
3849.85 0.125093
3852.72 0.186979
3855.58 0.0625991
3858.45 0.0709358
3861.31 0.120691
3864.17 0.158637
3867.04 0.129395
3869.9 0.0892146
3872.77 0.13043
3875.63 0.0994591
3878.5 0.1524
3881.36 0.162077
3884.23 0.154865
3887.09 0.0988211
3889.96 0.118634
3892.82 0.060637
3895.68 0.07128
3898.55 0.105161
3901.41 0.182327
3904.28 0.155802
3907.14 0.0930057
3910.01 0.095432
3912.87 0.0813783
3915.74 0.137909
3918.6 0.122597
3921.46 0.0969834
3924.33 0.112356
3927.19 0.0854953
3930.06 0.116461
3932.92 0.0972809
3935.79 0.110478
3938.65 0.158725
3941.52 0.0879066
3944.38 0.102566
3947.24 0.0955487
3950.11 0.118256
3952.97 0.0788793
3955.84 0.0805963
3958.7 0.0689089
3961.57 0.0684216
3964.43 0.0331599
3967.3 0.0772055
3970.16 0.051224
3973.02 0.0330323
3975.89 0.0622774
3978.75 0.092334
3981.62 0.0706766
3984.48 0.0563507
3987.35 0.0671437
3990.21 0.128708
3993.08 0.0732743
3995.94 0.0415972
3998.81 0.102231
4001.67 0.0769378
4004.53 0.113765
4007.4 0.0841509
4010.26 0.0842613
4013.13 0.0896684
4015.99 0.0842299
4018.86 0.0839913
4021.72 0.110403
4024.59 0.0976878
4027.45 0.0590678
4030.31 0.0821147
4033.18 0.0771739
4036.04 0.0981247
4038.91 0.0963045
4041.77 0.0737963
4044.64 0.0566363
4047.5 0.0523992
4050.37 0.130383
4053.23 0.0888035
4056.09 0.136465
4058.96 0.0992883
4061.82 0.0935272
4064.69 0.0651273
4067.55 0.0403991
4070.42 0.0604504
4073.28 0.0928576
4076.15 0.130264
4079.01 0.120504
4081.88 0.0988365
4084.74 0.0658271
4087.6 0.0636195
4090.47 0.0798097
4093.33 0.0874032
4096.2 0.10589
4099.06 0.100188
4101.93 0.0801638
4104.79 0.091742
4107.66 0.0732682
4110.52 0.0800792
4113.38 0.0670559
4116.25 0.0901002
4119.11 0.117655
4121.98 0.0864007
4124.84 0.0923493
4127.71 0.0723816
4130.57 0.0777455
4133.44 0.0976561
4136.3 0.0946795
4139.16 0.0870355
4142.03 0.0598136
4144.89 0.0968172
4147.76 0.0575742
4150.62 0.0976063
4153.49 0.0865222
4156.35 0.0976532
4159.22 0.0994837
4162.08 0.140205
4164.94 0.105365
4167.81 0.0726809
4170.67 0.00431578
4173.54 0.0712813
4176.4 0.0780554
4179.27 0.0848739
4182.13 0.0991169
4185 0.0779458
4187.86 0.0512565
4190.73 0.0628888
4193.59 0.0924456
4196.45 0.104641
4199.32 0.0917491
4202.18 0.0720276
4205.05 0.0849536
4207.91 0.137047
4210.78 0.0668919
4213.64 0.103729
4216.5 0.162942
4219.37 0.0541419
4222.23 0.0998911
4225.1 0.121878
4227.96 0.102578
4230.83 0.0696469
4233.69 0.0743577
4236.56 0.0968974
4239.42 0.115069
4242.29 0.059377
4245.15 0.0477936
4248.01 0.0735302
4250.88 0.120788
4253.74 0.0902833
4256.61 0.0786021
4259.47 0.128279
4262.34 0.10648
4265.2 0.0847818
4268.07 0.1317
4270.93 0.0588269
4273.79 0.0507523
4276.66 0.0644449
4279.52 0.139572
4282.39 0.146477
4285.25 0.0793267
4288.12 0.0755779
4290.98 0.103259
4293.85 0.0840145
4296.71 0.0931136
4299.57 0.0817528
4302.44 0.0401632
4305.3 0.0673136
4308.17 0.0711163
4311.03 0.065588
4313.9 0.0876641
4316.76 0.120506
4319.63 0.0953746
4322.49 0.119522
4325.36 0.0885937
4328.22 0.0976857
4331.08 0.101593
4333.95 0.0864638
4336.81 0.14368
4339.68 0.0854465
4342.54 0.0865425
4345.41 0.0534086
4348.27 0.0839501
4351.14 0.123085
4354 0.136099
4356.86 0.0496771
4359.73 0.0704535
4362.59 0.123331
4365.46 0.0952439
4368.32 0.129385
4371.19 0.093705
4374.05 0.0702057
4376.92 0.0402264
4379.78 0.0676801
4382.64 0.0820992
4385.51 0.0393695
4388.37 0.132798
4391.24 0.113829
4394.1 0.102585
4396.97 0.104928
4399.83 0.101532
4402.7 0.0960012
4405.56 0.0597263
4408.43 0.115529
4411.29 0.0779784
4414.15 0.0867675
4417.02 0.0818391
4419.88 0.14485
4422.75 0.100777
4425.61 0.0538082
4428.48 0.071596
4431.34 0.0430216
4434.21 0.0568469
4437.07 0.0893766
4439.93 0.0689299
4442.8 0.0955929
4445.66 0.0514333
4448.53 0.066736
4451.39 0.100279
4454.26 0.141493
4457.12 0.0729802
4459.99 0.0969096
4462.85 0.142206
4465.71 0.0848588
4468.58 0.0835052
4471.44 0.0919641
4474.31 0.128417
4477.17 0.0417284
4480.04 0.0915426
4482.9 0.081152
4485.77 0.0385102
4488.63 0.0643843
4491.49 0.0369573
4494.36 0.0416396
4497.22 0.0730218
4500.09 0.0641315
4502.95 0.0291744
4505.82 0.101794
4508.68 0.117146
4511.55 0.0538832
4514.41 0.0180471
4517.27 0.113796
4520.14 0.074604
4523 0.123056
4525.87 0.0502979
4528.73 0.117336
4531.6 0.125572
4534.46 0.0946692
4537.33 0.0809613
4540.19 0.0587606
4543.06 0.0651956
4545.92 0.0563006
4548.78 0.0876858
4551.65 0.084979
4554.51 0.115434
4557.38 0.0602241
4560.24 0.0993026
4563.11 0.093359
4565.97 0.0302639
4568.84 0.0685147
4571.7 0.0542918
4574.56 0.0401603
4577.43 0.0788844
4580.29 0.123831
4583.16 0.108201
4586.02 0.0860595
4588.89 0.0329995
4591.75 0.0674203
4594.62 0.0413053
4597.48 -0.00189082
4600.34 0.0319221
4603.21 0.12618
4606.07 0.109659
4608.94 0.0437678
4611.8 0.0915553
4614.67 0.15367
4617.53 0.0296735
4620.4 0.00214907
4623.26 0.0711581
4626.12 0.107675
4628.99 0.0820045
4631.85 0.0325102
4634.72 0.0364874
4637.58 0.0871047
4640.45 0.0630317
4643.31 0.0971785
4646.18 0.0793884
4649.04 0.0547762
4651.91 0.0734383
4654.77 0.124918
4657.63 0.111353
4660.5 0.185232
4663.36 0.107377
4666.23 0.0501165
4669.09 0.0494053
4671.96 0.024232
4674.82 0.183368
4677.69 0.157758
4680.55 0.07849
4683.41 0.152046
4686.28 0.117237
4689.14 0.0830922
4692.01 0.105651
4694.87 0.106459
4697.74 0.105581
4700.6 0.14266
4703.47 0.0587034
4706.33 0.100729
4709.19 -0.00258834
4712.06 0.0735894
4714.92 0.0706369
4717.79 0.0319054
4720.65 0.0974316
4723.52 -0.051057
4726.38 0.1442
4729.25 0.0257455
4732.11 0.121295
4734.97 0.101586
4737.84 0.198219
4740.7 0.131488
4743.57 0.166646
4746.43 0.0906029
4749.3 0.187452
4752.16 0.0329807
4755.03 0.00586687
4757.89 0.235207
4760.76 0.161382
4763.62 0.194043
4766.48 0.021521
4769.35 0.029923
4772.21 0.225715
4775.08 0.215807
4777.94 0.162146
4780.81 0.2133
4783.67 0.248735
4786.54 0.0817776
4789.4 0.12569
4792.26 0.125996
4795.13 0.129278
4797.99 0.189085
4800.86 0.134187
4803.72 0.516093
4806.59 0.429857
4809.45 0.104674
4812.32 0.139083
4815.18 0.00010251
4818.04 0.178809
4820.91 0.0693182
4823.77 0.164024
4826.64 0.0630501
4829.5 -0.0449546
4832.37 -0.0520275
4835.23 -0.0579345
4838.1 0.202513
4840.96 0.416287
4843.83 -0.178976
4846.69 -0.255674
4849.55 0.255322
4852.42 -0.0240986
4855.28 0.560449
4858.15 0.475429
4861.01 0.259557
4863.88 0.110323
4866.74 0.297055
4869.6 -0.0135075
4872.47 0.0135439
4875.33 0.105319
4878.2 -0.23959
4881.06 -0.182033
4883.93 -0.0439446
4886.79 0.504042
4889.66 0.00582696
4892.52 -0.118558
4895.39 -0.197879
4898.25 0.479716
4901.11 0.886055
4903.98 0.0739722
4906.84 -0.317899
4909.71 -0.00714176
4912.57 -0.0612681
4915.44 0.729015
4918.3 1.04249
4921.17 0.384682
4924.03 0.225096
4926.89 -0.410484
4929.76 -0.470654
4932.62 0.583359
4935.49 -0.445793
4938.35 -0.254089
4941.22 -0.712326
4944.08 0.360479
4946.95 -0.0690733
4949.81 -0.413785
4952.67 -0.0386877
4955.54 0.198393
4958.4 0.466081
4961.27 1.13456
4964.13 0.237064
4967 0.20647
4969.86 0.788917
4972.73 0.945003
4975.59 1.61911
4978.46 0.674355
4981.32 -0.531511
4984.18 0.259015
4987.05 4.07334
4989.91 1.70156
4992.78 -0.44703
4995.64 -1.88262
4998.51 -1.9041
5001.37 0.333618
5004.24 0.150527
5007.1 -0.196445
5009.96 -0.876003
5012.83 -0.386506
5015.69 -0.111364
5018.56 0.903144
5021.42 3.36847
5024.29 2.69422
5027.15 4.41832
5030.02 -0.694452
5032.88 -0.752365
5035.75 0.238334
5038.61 -2.99259
5041.47 -1.07314
5044.34 -0.377915
5047.2 -1.0294
5050.07 6.22571
5052.93 1.07231
5055.8 0.474613
5058.66 1.49617
5061.52 -0.587356
5064.39 -1.60551
5067.25 2.60897
5070.12 1.37277
5072.98 -3.59506
5075.85 -1.01543
5078.71 1.91393
5081.58 2.3554
5084.44 3.49112
5087.31 3.87075
5090.17 11.8288
5093.03 1.45767
5095.9 4.80736
5098.76 -0.262137
5101.63 -1.96654
5104.49 4.52478
5107.36 0.512696
5110.22 0.903801
5113.09 -3.24228
5115.95 -3.22152
5118.81 -3.3291
5121.68 3.02
5124.54 3.6575
5127.41 -1.51689
5130.27 -1.06611
5133.14 -0.0356597
5136 -1.21243
5138.87 0.269428
5141.73 -2.31214
5144.59 0.626968
5147.46 -1.43574
5150.32 -1.53261
5153.19 -1.96263
5156.05 -3.57568
5158.92 -4.73517
5161.78 -4.43093
5164.65 -2.17912
5167.51 5.96702
5170.38 3.93542
5173.24 -0.927497
5176.1 -0.649263
5178.97 0.604964
5181.83 -0.625328
5184.7 -3.41899
5187.56 -0.422755
5190.43 -1.52115
5193.29 -2.02075
5196.16 -1.31406
5199.02 1.7527
5201.88 0.48128
5204.75 2.16381
5207.61 8.18422
5210.48 0.231725
5213.34 -0.33258
5216.21 -1.89559
5219.07 -0.442955
5221.94 -1.31377
5224.8 0.111858
5227.66 -0.88488
5230.53 -1.74101
5233.39 -1.79315
5236.26 1.9045
5239.12 2.37504
5241.99 0.00208432
5244.85 -3.1732
5247.72 -4.10288
5250.58 -4.2224
5253.44 -0.0824081
5256.31 -0.362155
5259.17 -0.876529
5262.04 1.9261
5264.9 1.19067
5267.77 -0.877768
5270.63 -0.740638
5273.5 0.56341
5276.36 3.95111
5279.23 0.583145
5282.09 4.04061
5284.95 1.50236
5287.82 6.23677
5290.68 -1.25354
5293.55 -0.581401
5296.41 0.260841
5299.28 2.85964
5302.14 -0.176848
5305.01 -0.644227
5307.87 -1.8708
5310.73 -1.10147
5313.6 1.97561
5316.46 2.94621
5319.33 0.573096
5322.19 1.75955
5325.06 4.36805
5327.92 1.42948
5330.79 -2.23344
5333.65 0.128603
5336.51 0.745755
5339.38 -0.531297
5342.24 -0.570745
5345.11 -1.23508
5347.97 0.720328
5350.84 3.4432
5353.7 0.405873
5356.57 1.01237
5359.43 3.17524
5362.29 1.59878
5365.16 -0.234066
5368.02 -0.259972
5370.89 -0.448448
5373.75 -1.62106
5376.62 -1.74771
5379.48 1.33484
5382.35 1.17621
5385.21 3.78299
5388.08 -0.126982
5390.94 1.88454
5393.8 0.0916481
5396.67 -1.03753
5399.53 -0.262717
5402.4 -1.0812
5405.26 -1.48944
5408.13 0.744616
5410.99 2.55262
5413.86 -1.50497
5416.72 -1.31967
5419.58 0.0328383
5422.45 0.364196
5425.31 1.33002
5428.18 1.20062
5431.04 -0.886889
5433.91 -2.26168
5436.77 -1.88546
5439.64 -1.28148
5442.5 1.24865
5445.36 -2.42704
5448.23 -2.18093
5451.09 1.65783
5453.96 3.88409
5456.82 1.00215
5459.69 1.28869
5462.55 2.07831
5465.42 -0.460013
5468.28 1.29894
5471.15 1.64295
5474.01 1.57101
5476.87 -0.971801
5479.74 -1.89502
5482.6 -0.0572346
5485.47 0.890937
5488.33 2.95543
5491.2 3.1563
5494.06 2.62243
5496.92 1.50072
5499.79 -0.692368
5502.65 -1.51467
5505.52 -1.03813
5508.38 -1.42305
5511.25 -1.79737
5514.11 -1.41057
5516.98 -0.488237
5519.84 0.27637
5522.71 3.88404
5525.57 2.17165
5528.43 1.11843
5531.3 -1.728
5534.16 -0.470114
5537.03 0.407012
5539.89 -2.0115
5542.76 -2.32735
5545.62 2.18603
5548.49 0.99676
5551.35 0.778875
5554.21 2.62798
5557.08 4.29252
5559.94 0.765445
5562.81 -1.43015
5565.67 -0.857189
5568.54 -2.67906
5571.4 -2.41749
5574.27 -0.45492
5577.13 -1.17932
5579.99 -0.955048
5582.86 -0.0111673
5585.72 1.63144
5588.59 3.15092
5591.45 4.56051
5594.32 5.5509
5597.18 0.0364253
5600.05 -0.120303
5602.91 -1.81891
5605.78 -0.74731
5608.64 1.00496
5611.5 -0.0591068
5614.37 1.05342
5617.23 1.40446
5620.1 2.71504
5622.96 0.152654
5625.83 -2.35353
5628.69 1.65221
5631.56 0.344511
5634.42 0.107424
5637.28 -1.28461
5640.15 0.366683
5643.01 -0.61825
5645.88 -1.0374
5648.74 0.142179
5651.61 -2.572
5654.47 -0.783504
5657.34 -1.40665
5660.2 -1.15424
5663.06 3.91396
5665.93 0.75143
5668.79 -1.24666
5671.66 -1.92923
5674.52 1.26373
5677.39 7.68552
5680.25 0.643167
5683.12 1.61762
5685.98 0.42354
5688.84 0.012055
5691.71 -0.877402
5694.57 10.356
5697.44 -0.505605
5700.3 -2.28575
5703.17 -2.33336
5706.03 6.45618
5708.9 -1.12747
5711.76 -0.058999
5714.62 0.0576718
5717.49 3.48351
5720.35 2.3603
5723.22 -0.523492
5726.08 0.96613
5728.95 3.73276
5731.81 3.97475
5734.68 3.63901
5737.54 -0.504685
5740.41 -2.66564
5743.27 -0.56325
5746.13 -0.939842
5749 -1.84112
5751.86 1.81115
5754.73 2.61411
5757.59 7.94603
5760.46 3.02547
5763.32 1.33372
5766.19 4.47511
5769.05 1.22621
5771.91 0.537971
5774.78 0.269415
5777.64 7.42062
5780.51 2.38234
5783.37 3.66708
5786.24 3.38103
5789.1 -1.28527
5791.97 -1.27073
5794.83 -1.10405
5797.69 -0.77749
5800.56 1.27176
5803.42 -0.70618
5806.29 -0.33527
5809.15 0.398008
5812.02 1.21188
5814.88 -0.772017
5817.75 -0.630362
5820.61 1.04586
5823.48 -0.690711
5826.34 3.65844
5829.2 -2.9119
5832.07 -1.39223
5834.93 3.30311
5837.8 2.28566
5840.66 -1.42194
5843.53 -1.8092
5846.39 -1.31998
5849.26 0.678812
5852.12 1.21545
5854.98 -0.815321
5857.85 1.47412
5860.71 3.85594
5863.58 -2.62077
spectrumdark 2048
0 3436.82
2.8709 2313.16
5.74181 863.271
8.61271 794.6
11.4836 690.236
14.3545 946.677
17.2254 719.815
20.0963 795.86
22.9672 1568.36
25.8381 1687.7
28.709 1432.27
31.5799 1311.03
34.4509 1721.86
37.3218 2006.39
40.1927 2246.52
43.0636 1565.06
45.9345 1998.37
48.8054 2217.6
51.6763 2157.96
54.5472 1844.01
57.4181 2341.36
60.289 2476
63.1599 3226.23
66.0308 3429.22
68.9017 2390.89
71.7726 3366.72
74.6435 3318.04
77.5144 3549.29
80.3853 3958.76
83.2562 3800.63
86.1271 2870.9
88.998 2962.01
91.8689 3612.78
94.7398 3206.12
97.6107 2577.93
100.482 2745.98
103.353 3260.8
106.223 3283.45
109.094 3376.08
111.965 3922.49
114.836 3016.44
117.707 2364.82
120.578 3341.52
123.449 4392.32
126.32 2689.79
129.191 2565.19
132.062 2915.86
134.932 3450.54
137.803 3255.98
140.674 4128.23
143.545 3069.15
146.416 2939.54
149.287 2444.72
152.158 2394.72
155.029 3425.52
157.9 3282.35
160.771 3489.37
163.642 3847.98
166.512 3171.24
169.383 2837.4
172.254 2159.83
175.125 3052.28
177.996 3394.85
180.867 3806.78
183.738 3535.77
186.609 3169.85
189.48 2429.46
192.351 3376.59
195.221 2851.22
198.092 3297.69
200.963 3601.51
203.834 3443.7
206.705 3025.97
209.576 3927.09
212.447 4731.1
215.318 3231.93
218.189 3936.49
221.06 3411.03
223.931 2775.26
226.801 2444.67
229.672 3008
232.543 3280.8
235.414 3671.33
238.285 3706.49
241.156 3531.53
244.027 2984.54
246.898 3245.16
249.769 3092.37
252.64 2442.24
255.51 2365.45
258.381 2212.33
261.252 2809.91
264.123 3913.73
266.994 4037.66
269.865 3416.14
272.736 3231.05
275.607 2448.94
278.478 3384.12
281.349 2704.36
284.22 2609.74
287.09 1803.95
289.961 2727.2
292.832 2842.84
295.703 3434.87
298.574 2735.1
301.445 2650.73
304.316 2707.91
307.187 2048.06
310.058 2287.04
312.929 2651.33
315.799 2381.78
318.67 2117.55
321.541 2906.88
324.412 2617.7
327.283 2667.4
330.154 2043.78
333.025 3075.44
335.896 3089.02
338.767 2006.73
341.638 3579.83
344.509 2892.31
347.379 2320.68
350.25 1896.03
353.121 2573.13
355.992 2733.39
358.863 1940.83
361.734 3670.48
364.605 2741.79
367.476 2519.53
370.347 2603.05
373.218 3057.6
376.088 1714.62
378.959 2483.42
381.83 2182.45
384.701 2117.5
387.572 2148.08
390.443 3297.62
393.314 3139.66
396.185 2602.18
399.056 2178.95
401.927 1997.75
404.798 1529.42
407.668 1599.72
410.539 1654.63
413.41 2041.6
416.281 2134.99
419.152 1809.03
422.023 1828.32
424.894 2055.48
427.765 1785.1
430.636 2499.07
433.507 2008.14
436.378 1794.59
439.248 1806.69
442.119 2115.28
444.99 1782.68
447.861 1152.51
450.732 1751.16
453.603 2321.23
456.474 2795.26
459.345 2907
462.216 2514.88
465.087 2010.05
467.957 1601.5
470.828 2029.06
473.699 2445.32
476.57 2185.19
479.441 2076.3
482.312 2455.5
485.183 2150.09
488.054 2442.81
490.925 1727.83
493.796 2611.38
496.666 2239.89
499.537 2258.4
502.408 1751.22
505.279 2089.45
508.15 1746.17
511.021 2766.64
513.892 2871.27
516.763 2294.48
519.634 1706.17
522.505 2367.17
525.376 1426.73
528.246 1839.61
531.117 2222.57
533.988 2419.29
536.859 2425.41
539.73 1342.64
542.601 2326.95
545.472 3234.68
548.343 1960.68
551.214 1508.79
554.085 2101.09
556.955 2547.23
559.826 2034.55
562.697 2129.32
565.568 1661.02
568.439 1521.3
571.31 1651.13
574.181 2020.32
577.052 2916.74
579.923 2279.11
582.794 2144.4
585.664 1725.61
588.535 2766.15
591.406 3321.16
594.277 3928.61
597.148 4081.7
600.019 4472.14
602.89 4654.06
605.761 5681.8
608.632 5863.55
611.503 5810.6
614.374 6838.67
617.244 8652.93
620.115 9872.74
622.986 10930.8
625.857 13933.3
628.728 15269.7
631.599 16458.6
634.47 18339.1
637.341 20359.5
640.212 21950.4
643.083 25348.3
645.953 27256.2
648.824 29423.4
651.695 31526.3
654.566 33117.9
657.437 35629
660.308 38239.1
663.179 40716.2
666.05 42815.4
668.921 40883.1
671.792 47437.3
674.663 50354.3
677.533 53413.3
680.404 54546.8
683.275 57185.9
686.146 59353.7
689.017 61313.9
691.888 64042.9
694.759 66945.8
697.63 69664
700.501 72660.6
703.372 75583.9
706.242 77326.3
709.113 79590.7
711.984 83289.2
714.855 86371.7
717.726 88905
720.597 91331.5
723.468 94370.6
726.339 96910.8
729.21 100854
732.081 104291
734.952 107607
737.822 111039
740.693 115162
743.564 118234
746.435 121474
749.306 125692
752.177 129240
755.048 133140
757.919 137586
760.79 141010
763.661 146279
766.531 149256
769.402 154409
772.273 158770
775.144 162379
778.015 167162
780.886 170793
783.757 174073
786.628 177768
789.499 181332
792.37 185384
795.24 188630
798.111 191941
800.982 197678
803.853 201680
806.724 206310
809.595 211831
812.466 216842
815.337 221654
818.208 226438
821.079 231515
823.95 237054
826.82 240480
829.691 246470
832.562 250941
835.433 255391
838.304 260018
841.175 263193
844.046 267782
846.917 271719
849.788 275269
852.659 280373
855.53 284120
858.4 288058
861.271 292096
864.142 295493
867.013 299522
869.884 304051
872.755 308375
875.626 312203
878.497 316567
881.368 321924
884.239 325949
887.109 329886
889.98 335649
892.851 340190
895.722 344919
898.593 350630
901.464 355330
904.335 360431
907.206 365258
910.077 370910
912.948 376495
915.819 381655
918.689 387416
921.56 392437
924.431 398349
927.302 405130
930.173 411162
933.044 418223
935.915 424879
938.786 431195
941.657 438295
944.528 445886
947.398 453651
950.269 461838
953.14 470575
956.011 479993
958.882 489971
961.753 499983
964.624 511360
967.495 522609
970.366 534370
973.237 546936
976.107 559032
978.978 572153
981.849 583507
984.72 595485
987.591 606323
990.462 616563
993.333 624968
996.204 632525
999.075 636667
1001.95 639680
1004.82 639866
1007.69 637394
1010.56 632278
1013.43 625707
1016.3 617750
1019.17 609205
1022.04 600301
1024.91 590988
1027.78 580557
1030.65 570083
1033.53 558936
1036.4 547043
1039.27 535279
1042.14 522668
1045.01 510070
1047.88 497596
1050.75 485286
1053.62 472936
1056.49 459959
1059.36 447468
1062.23 434617
1065.11 422077
1067.98 409533
1070.85 398128
1073.72 386158
1076.59 374486
1079.46 363920
1082.33 354432
1085.2 346011
1088.07 338307
1090.94 331990
1093.81 325690
1096.69 321525
1099.56 318007
1102.43 315278
1105.3 312950
1108.17 311349
1111.04 309782
1113.91 309092
1116.78 308431
1119.65 308054
1122.52 307751
1125.39 307132
1128.27 307720
1131.14 307790
1134.01 307943
1136.88 306608
1139.75 307039
1142.62 307141
1145.49 306593
1148.36 305753
1151.23 304977
1154.1 303189
1156.97 301089
1159.85 299995
1162.72 298147
1165.59 296519
1168.46 294712
1171.33 291899
1174.2 289610
1177.07 286549
1179.94 283234
1182.81 280510
1185.68 277492
1188.55 274503
1191.43 271221
1194.3 268643
1197.17 265812
1200.04 262634
1202.91 260638
1205.78 258519
1208.65 256535
1211.52 255209
1214.39 253783
1217.26 253634
1220.13 254234
1223.01 255620
1225.88 257621
1228.75 260119
1231.62 263813
1234.49 267892
1237.36 272473
1240.23 278524
1243.1 284150
1245.97 290863
1248.84 296321
1251.71 301037
1254.59 304814
1257.46 306818
1260.33 306360
1263.2 306672
1266.07 308244
1268.94 309203
1271.81 309731
1274.68 310650
1277.55 310834
1280.42 310324
1283.29 310130
1286.17 309679
1289.04 308721
1291.91 308499
1294.78 307640
1297.65 306819
1300.52 306004
1303.39 305693
1306.26 304706
1309.13 303851
1312 302378
1314.87 300825
1317.75 300008
1320.62 298478
1323.49 299042
1326.36 298935
1329.23 298719
1332.1 297399
1334.97 296315
1337.84 293998
1340.71 289510
1343.58 291003
1346.45 294885
1349.33 293502
1352.2 292907
1355.07 291912
1357.94 290098
1360.81 288762
1363.68 282163
1366.55 282823
1369.42 287134
1372.29 285429
1375.16 281184
1378.03 280192
1380.91 284524
1383.78 284993
1386.65 282834
1389.52 273594
1392.39 279058
1395.26 274810
1398.13 266753
1401 270393
1403.87 276341
1406.74 274878
1409.61 277234
1412.48 277927
1415.36 276105
1418.23 269867
1421.1 250933
1423.97 263911
1426.84 269369
1429.71 272565
1432.58 267078
1435.45 267655
1438.32 251280
1441.19 260414
1444.06 272136
1446.94 270901
1449.81 262833
1452.68 264356
1455.55 259192
1458.42 231482
1461.29 236139
1464.16 263238
1467.03 254550
1469.9 260923
1472.77 255157
1475.64 235918
1478.52 253778
1481.39 265818
1484.26 267122
1487.13 265907
1490 253500
1492.87 246528
1495.74 257908
1498.61 243741
1501.48 247234
1504.35 253610
1507.22 231385
1510.1 207542
1512.97 242718
1515.84 247023
1518.71 237939
1521.58 230667
1524.45 216775
1527.32 236943
1530.19 241985
1533.06 249189
1535.93 235274
1538.8 237245
1541.68 204055
1544.55 207003
1547.42 231498
1550.29 246631
1553.16 242807
1556.03 233378
1558.9 214819
1561.77 184572
1564.64 230625
1567.51 242612
1570.38 241060
1573.26 231442
1576.13 241255
1579 219110
1581.87 242915
1584.74 246864
1587.61 246730
1590.48 245070
1593.35 242305
1596.22 240524
1599.09 238013
1601.96 235719
1604.84 231003
1607.71 226587
1610.58 220886
1613.45 215962
1616.32 209711
1619.19 188679
1622.06 198609
1624.93 197356
1627.8 196296
1630.67 200775
1633.54 203233
1636.42 195932
1639.29 184688
1642.16 210457
1645.03 212472
1647.9 201154
1650.77 193065
1653.64 196794
1656.51 171956
1659.38 221334
1662.25 229136
1665.12 222969
1668 227755
1670.87 222187
1673.74 215258
1676.61 222685
1679.48 220527
1682.35 228361
1685.22 214185
1688.09 198180
1690.96 230984
1693.83 230355
1696.7 223678
1699.58 197653
1702.45 196387
1705.32 210287
1708.19 222653
1711.06 230384
1713.93 231921
1716.8 220357
1719.67 204332
1722.54 216117
1725.41 233582
1728.28 233027
1731.16 229281
1734.03 218087
1736.9 197421
1739.77 217264
1742.64 218622
1745.51 224065
1748.38 224656
1751.25 219397
1754.12 215217
1756.99 227477
1759.86 224772
1762.74 227156
1765.61 221516
1768.48 228110
1771.35 217280
1774.22 211062
1777.09 212607
1779.96 224223
1782.83 222219
1785.7 221588
1788.57 220020
1791.44 220250
1794.32 210567
1797.19 210816
1800.06 217334
1802.93 213335
1805.8 213898
1808.67 215596
1811.54 212625
1814.41 208856
1817.28 208152
1820.15 202650
1823.02 196588
1825.9 192566
1828.77 186388
1831.64 185562
1834.51 183430
1837.38 187170
1840.25 184476
1843.12 180504
1845.99 174030
1848.86 171464
1851.73 176478
1854.6 175961
1857.48 174158
1860.35 172032
1863.22 170288
1866.09 168293
1868.96 164239
1871.83 159747
1874.7 161697
1877.57 162692
1880.44 161128
1883.31 159155
1886.18 157683
1889.06 154734
1891.93 152413
1894.8 150738
1897.67 150123
1900.54 148517
1903.41 147341
1906.28 145436
1909.15 143246
1912.02 141065
1914.89 139709
1917.76 137193
1920.64 134238
1923.51 133173
1926.38 131967
1929.25 130445
1932.12 127962
1934.99 125650
1937.86 122877
1940.73 119693
1943.6 116901
1946.47 114264
1949.34 112977
1952.21 111109
1955.09 108874
1957.96 106823
1960.83 103947
1963.7 100990
1966.57 98102.3
1969.44 96376.3
1972.31 95002.6
1975.18 93213.9
1978.05 91416.5
1980.92 90615.2
1983.79 92280
1986.67 95094.8
1989.54 96538.2
1992.41 97441
1995.28 97788.6
1998.15 98856.8
2001.02 99167.5
2003.89 98378
2006.76 97016.3
2009.63 94103.3
2012.5 92647.8
2015.37 92272.8
2018.25 91652.5
2021.12 91609.1
2023.99 91035.9
2026.86 91050.9
2029.73 90706.9
2032.6 90278.4
2035.47 89956
2038.34 90431.4
2041.21 91997.4
2044.08 94139
2046.95 95779.4
2049.83 97824.5
2052.7 100194
2055.57 105160
2058.44 108626
2061.31 110619
2064.18 112124
2067.05 113802
2069.92 115030
2072.79 116549
2075.66 118067
2078.53 119995
2081.41 121970
2084.28 123866
2087.15 125831
2090.02 127592
2092.89 128485
2095.76 128353
2098.63 127256
2101.5 126643
2104.37 127306
2107.24 128013
2110.11 128405
2112.99 128906
2115.86 129607
2118.73 130534
2121.6 130512
2124.47 129513
2127.34 127926
2130.21 125552
2133.08 122019
2135.95 117331
2138.82 111607
2141.69 107445
2144.57 104321
2147.44 100714
2150.31 97784.5
2153.18 94902.6
2156.05 92155.1
2158.92 88773.8
2161.79 83854
2164.66 82109.6
2167.53 84243.1
2170.4 86610
2173.27 88856.2
2176.15 90100.5
2179.02 90560.9
2181.89 90939.8
2184.76 90988
2187.63 91983.6
2190.5 92893
2193.37 94306.2
2196.24 95385.5
2199.11 96525.4
2201.98 97676.3
2204.85 98638.5
2207.73 99830.7
2210.6 100425
2213.47 101385
2216.34 102038
2219.21 103052
2222.08 103931
2224.95 104874
2227.82 105769
2230.69 107252
2233.56 108112
2236.43 109376
2239.31 110635
2242.18 112063
2245.05 113784
2247.92 115100
2250.79 117003
2253.66 118052
2256.53 119026
2259.4 120039
2262.27 121905
2265.14 124036
2268.01 125852
2270.89 127758
2273.76 130465
2276.63 132745
2279.5 136020
2282.37 139676
2285.24 143752
2288.11 148368
2290.98 153871
2293.85 159594
2296.72 164428
2299.59 168902
2302.47 172692
2305.34 175872
2308.21 178746
2311.08 181184
2313.95 183241
2316.82 184986
2319.69 186844
2322.56 189144
2325.43 192267
2328.3 199037
2331.17 204515
2334.05 202676
2336.92 200146
2339.79 198663
2342.66 198129
2345.53 200085
2348.4 204407
2351.27 210912
2354.14 212680
2357.01 200161
2359.88 187317
2362.75 179132
2365.63 175374
2368.5 174238
2371.37 175915
2374.24 180054
2377.11 185502
2379.98 190320
2382.85 193593
2385.72 194618
2388.59 193264
2391.46 191092
2394.33 188303
2397.21 185859
2400.08 183081
2402.95 179913
2405.82 177280
2408.69 174614
2411.56 171971
2414.43 170096
2417.3 168637
2420.17 167070
2423.04 165414
2425.91 163894
2428.79 162393
2431.66 160838
2434.53 159698
2437.4 158766
2440.27 157698
2443.14 156596
2446.01 156116
2448.88 155444
2451.75 155198
2454.62 154869
2457.49 154611
2460.36 154469
2463.24 154342
2466.11 153868
2468.98 153146
2471.85 152871
2474.72 152255
2477.59 151632
2480.46 150619
2483.33 149858
2486.2 148618
2489.07 148107
2491.95 147393
2494.82 147030
2497.69 146449
2500.56 146227
2503.43 145432
2506.3 145011
2509.17 144343
2512.04 143754
2514.91 143408
2517.78 143015
2520.65 142515
2523.53 141971
2526.4 141700
2529.27 141314
2532.14 140949
2535.01 140526
2537.88 140468
2540.75 140425
2543.62 140243
2546.49 140194
2549.36 139930
2552.23 139918
2555.1 139796
2557.98 139906
2560.85 140027
2563.72 140529
2566.59 140683
2569.46 141051
2572.33 141474
2575.2 141886
2578.07 142621
2580.94 143099
2583.81 143700
2586.68 144395
2589.56 145378
2592.43 146209
2595.3 147522
2598.17 148513
2601.04 149937
2603.91 150877
2606.78 152752
2609.65 154307
2612.52 155987
2615.39 158188
2618.26 160216
2621.14 162354
2624.01 164485
2626.88 167109
2629.75 169707
2632.62 172615
2635.49 175453
2638.36 178407
2641.23 181614
2644.1 185156
2646.97 188303
2649.84 192087
2652.72 195395
2655.59 199085
2658.46 202414
2661.33 205556
2664.2 208076
2667.07 210250
2669.94 211139
2672.81 210958
2675.68 210692
2678.55 210274
2681.42 209366
2684.3 208638
2687.17 207838
2690.04 207131
2692.91 206308
2695.78 205831
2698.65 205221
2701.52 204326
2704.39 203528
2707.26 202835
2710.13 202104
2713 201437
2715.88 200996
2718.75 199942
2721.62 199334
2724.49 198372
2727.36 197987
2730.23 197308
2733.1 196841
2735.97 195880
2738.84 195322
2741.71 194538
2744.58 193805
2747.46 193364
2750.33 192668
2753.2 191941
2756.07 191337
2758.94 190590
2761.81 189978
2764.68 189544
2767.55 188921
2770.42 188219
2773.29 187513
2776.16 187031
2779.04 186341
2781.91 185767
2784.78 184963
2787.65 184526
2790.52 183899
2793.39 183049
2796.26 182403
2799.13 181938
2802 181545
2804.87 180786
2807.74 180074
2810.62 179706
2813.49 178907
2816.36 178334
2819.23 177955
2822.1 177279
2824.97 176538
2827.84 175799
2830.71 175115
2833.58 174453
2836.45 173897
2839.32 173376
2842.2 172549
2845.07 171859
2847.94 170995
2850.81 169951
2853.68 169235
2856.55 168151
2859.42 167409
2862.29 166726
2865.16 166478
2868.03 166073
2870.9 165379
2873.78 165003
2876.65 164222
2879.52 163817
2882.39 163330
2885.26 162750
2888.13 162103
2891 161656
2893.87 161091
2896.74 160397
2899.61 159521
2902.48 159068
2905.36 158331
2908.23 157520
2911.1 156644
2913.97 155869
2916.84 154994
2919.71 154066
2922.58 153560
2925.45 152321
2928.32 151412
2931.19 150759
2934.06 150411
2936.94 150036
2939.81 149730
2942.68 149283
2945.55 148846
2948.42 148495
2951.29 148178
2954.16 147722
2957.03 146987
2959.9 146529
2962.77 145796
2965.64 145325
2968.52 144891
2971.39 144582
2974.26 144134
2977.13 143917
2980 143920
2982.87 143718
2985.74 143596
2988.61 143305
2991.48 143032
2994.35 142342
2997.22 141869
3000.1 141392
3002.97 141018
3005.84 140604
3008.71 140104
3011.58 139663
3014.45 138904
3017.32 138293
3020.19 137822
3023.06 137325
3025.93 136883
3028.8 136391
3031.68 135859
3034.55 135284
3037.42 134545
3040.29 134165
3043.16 133729
3046.03 133174
3048.9 132736
3051.77 132226
3054.64 131614
3057.51 131054
3060.38 130765
3063.26 130033
3066.13 129568
3069 128941
3071.87 128498
3074.74 128228
3077.61 127793
3080.48 126870
3083.35 126362
3086.22 126088
3089.09 125579
3091.96 125340
3094.83 124722
3097.71 124106
3100.58 123379
3103.45 122778
3106.32 122355
3109.19 122065
3112.06 121381
3114.93 120771
3117.8 120466
3120.67 119593
3123.54 119053
3126.41 118920
3129.29 118316
3132.16 117860
3135.03 117557
3137.9 116956
3140.77 116067
3143.64 115733
3146.51 115184
3149.38 114807
3152.25 114340
3155.12 113818
3157.99 113151
3160.87 112663
3163.74 112406
3166.61 111789
3169.48 111086
3172.35 110532
3175.22 110066
3178.09 109542
3180.96 109093
3183.83 108366
3186.7 107972
3189.57 107330
3192.45 106930
3195.32 106504
3198.19 105887
3201.06 105647
3203.93 105064
3206.8 104583
3209.67 104061
3212.54 103708
3215.41 103171
3218.28 102723
3221.15 102317
3224.03 102124
3226.9 101638
3229.77 101432
3232.64 100970
3235.51 100627
3238.38 100104
3241.25 100140
3244.12 99859
3246.99 99548.1
3249.86 99213.5
3252.73 98817.3
3255.61 98739.8
3258.48 98453.6
3261.35 98194.4
3264.22 98058.4
3267.09 97742.3
3269.96 97473.9
3272.83 97069.5
3275.7 96785.9
3278.57 96466.7
3281.44 96325.1
3284.31 96012.4
3287.19 95678
3290.06 95302.1
3292.93 94869.9
3295.8 94442.3
3298.67 94384.6
3301.54 94075.8
3304.41 93506.8
3307.28 93228.7
3310.15 92870
3313.02 92421.5
3315.89 92124.4
3318.77 91842.3
3321.64 91139.3
3324.51 90799.6
3327.38 90315.1
3330.25 89825.2
3333.12 89423.1
3335.99 89054.8
3338.86 88438.8
3341.73 87859.4
3344.6 87396.5
3347.47 87104.2
3350.35 86731.2
3353.22 86366.9
3356.09 85596.2
3358.96 85176
3361.83 84665.5
3364.7 84019.4
3367.57 83307
3370.44 82660.9
3373.31 82400.5
3376.18 82060.8
3379.05 81842.7
3381.93 81226.9
3384.8 80593.7
3387.67 80066.8
3390.54 79319.4
3393.41 78879.2
3396.28 78448.5
3399.15 77769.4
3402.02 77349.8
3404.89 76566.1
3407.76 76255.4
3410.63 75952.9
3413.51 75403.1
3416.38 74952.5
3419.25 74423.3
3422.12 73821.9
3424.99 73205.7
3427.86 72662.3
3430.73 72373.1
3433.6 71829.7
3436.47 71281.7
3439.34 70723.6
3442.21 70317
3445.09 69999.1
3447.96 69496.5
3450.83 69159.1
3453.7 68169.2
3456.57 68173
3459.44 67645
3462.31 67377.7
3465.18 66644
3468.05 66234.9
3470.92 65851
3473.79 65638.1
3476.67 65314.9
3479.54 64859.4
3482.41 64279.5
3485.28 63996.8
3488.15 63353.5
3491.02 63099.9
3493.89 62779.8
3496.76 62504.9
3499.63 62339
3502.5 61699.7
3505.37 61537.9
3508.25 60875.2
3511.12 60176.2
3513.99 60530.3
3516.86 60147.3
3519.73 60171.1
3522.6 59964.7
3525.47 59853.2
3528.34 59317.2
3531.21 58608.7
3534.08 58527.7
3536.95 58523.2
3539.83 58950.8
3542.7 58744.6
3545.57 58722
3548.44 58500.6
3551.31 57456.1
3554.18 57391.9
3557.05 58179.8
3559.92 57842.8
3562.79 58272.9
3565.66 58012
3568.53 57642
3571.41 56815.7
3574.28 55134.4
3577.15 57599.1
3580.02 58782.9
3582.89 58641
3585.76 58379.2
3588.63 58608.4
3591.5 57853.7
3594.37 55754.4
3597.24 58047.1
3600.11 58706
3602.98 58692.5
3605.86 59282
3608.73 59788.9
3611.6 60240.9
3614.47 58304
3617.34 58179.7
3620.21 58681.2
3623.08 59892.6
3625.95 58108.1
3628.82 60567
3631.69 62171.7
3634.56 57805.7
3637.44 58058.1
3640.31 62530.8
3643.18 63734.5
3646.05 64018.3
3648.92 63506
3651.79 62829.4
3654.66 57778.4
3657.53 56887.1
3660.4 62378.1
3663.27 61345.5
3666.15 63982.5
3669.02 64422.3
3671.89 64257.3
3674.76 61271.8
3677.63 56998.7
3680.5 58504.6
3683.37 55805.5
3686.24 61315.1
3689.11 62716.8
3691.98 62788.8
3694.85 58029
3697.72 58425.9
3700.6 62189.9
3703.47 63537.4
3706.34 62956.2
3709.21 61182.2
3712.08 62573.7
3714.95 61547.2
3717.82 57984
3720.69 59081.1
3723.56 62404.4
3726.43 61774.9
3729.3 60725.8
3732.18 59844.5
3735.05 60108.9
3737.92 58717.5
3740.79 55524.8
3743.66 54287.8
3746.53 58094.1
3749.4 56203.8
3752.27 50704.5
3755.14 54586.6
3758.01 51776.6
3760.88 56643.6
3763.76 60163.5
3766.63 59628.5
3769.5 61388.3
3772.37 60687.8
3775.24 60480.7
3778.11 59913.9
3780.98 62239.5
3783.85 62024.8
3786.72 60530.1
3789.59 61761.3
3792.46 61473.2
3795.34 61988.8
3798.21 61876.6
3801.08 60910.2
3803.95 58883.2
3806.82 56936.5
3809.69 55024.2
3812.56 57497.9
3815.43 56942.8
3818.3 60022.2
3821.17 57700
3824.04 54344.9
3826.92 55271.2
3829.79 54798.6
3832.66 58057
3835.53 58093.3
3838.4 56771.4
3841.27 55603
3844.14 52740.6
3847.01 53224.9
3849.88 55592.3
3852.75 56626.7
3855.62 56940.4
3858.5 52088.3
3861.37 45816.9
3864.24 53743.3
3867.11 56023.2
3869.98 54308.3
3872.85 53451.7
3875.72 52899.1
3878.59 51939
3881.46 53999.8
3884.33 55303.6
3887.2 53449.1
3890.08 53737.2
3892.95 51891.3
3895.82 53874.8
3898.69 52308.7
3901.56 53976.9
3904.43 53411.1
3907.3 50772.1
3910.17 50110.5
3913.04 51474.2
3915.91 53864
3918.78 53930.2
3921.66 53542.1
3924.53 52089.2
3927.4 52262.9
3930.27 52289.1
3933.14 51922.3
3936.01 52284.5
3938.88 51387.2
3941.75 51693.5
3944.62 52109.8
3947.49 51674.6
3950.36 50839.7
3953.24 50937.3
3956.11 50549.1
3958.98 50598.4
3961.85 50708.5
3964.72 50455.1
3967.59 50273.5
3970.46 49895.9
3973.33 49736.5
3976.2 49743.8
3979.07 49436.6
3981.94 48993.6
3984.82 48727.1
3987.69 48777.4
3990.56 48600.6
3993.43 48377
3996.3 48015.7
3999.17 47892.7
4002.04 47524.3
4004.91 47385.2
4007.78 47300.1
4010.65 46981.1
4013.52 46891.2
4016.4 46358.7
4019.27 46227.2
4022.14 46120.5
4025.01 45964.8
4027.88 45645.9
4030.75 45447.8
4033.62 45184.2
4036.49 45170.9
4039.36 45036.2
4042.23 44636.8
4045.1 44486.8
4047.98 44354.8
4050.85 43980.6
4053.72 43888.7
4056.59 43814.9
4059.46 43757.7
4062.33 43373.6
4065.2 43382.3
4068.07 43142
4070.94 42944.3
4073.81 42826.4
4076.68 42587.4
4079.56 42356.4
4082.43 42255.9
4085.3 42178.9
4088.17 41954.3
4091.04 41744.8
4093.91 41568.9
4096.78 41598.8
4099.65 41521.9
4102.52 41392.4
4105.39 41137.4
4108.26 40926.8
4111.14 40836.1
4114.01 40636.9
4116.88 40447.2
4119.75 40509
4122.62 40298.6
4125.49 40244.1
4128.36 40101.7
4131.23 39928.3
4134.1 39793
4136.97 39679.3
4139.84 39577.3
4142.72 39484.4
4145.59 39410.8
4148.46 39365.7
4151.33 39136.2
4154.2 38984
4157.07 38766
4159.94 38761.6
4162.81 38692.7
4165.68 38513.1
4168.55 38427.6
4171.42 38482.6
4174.3 38527.9
4177.17 38312.5
4180.04 38132.9
4182.91 38176
4185.78 37921.7
4188.65 37880.9
4191.52 37950
4194.39 37759
4197.26 37625.4
4200.13 37514.2
4203 37523.5
4205.87 37453.1
4208.75 37393.4
4211.62 37298.9
4214.49 37263.1
4217.36 37237.6
4220.23 37278.1
4223.1 37306.8
4225.97 37365.6
4228.84 37034.4
4231.71 37004.5
4234.58 36971.9
4237.45 36877.6
4240.33 36926.6
4243.2 36831.2
4246.07 36837.3
4248.94 36768.6
4251.81 36768.8
4254.68 36608.9
4257.55 36608.6
4260.42 36638.9
4263.29 36532.7
4266.16 36626.5
4269.03 36394.5
4271.91 36253.1
4274.78 36414.1
4277.65 36395
4280.52 36378.3
4283.39 36361.2
4286.26 36427.3
4289.13 36341.2
4292 36316.1
4294.87 36177.6
4297.74 36139.3
4300.61 36118.3
4303.49 36052.5
4306.36 36102.2
4309.23 36090.5
4312.1 35925
4314.97 35775.1
4317.84 35923.9
4320.71 35904.8
4323.58 35925.7
4326.45 35951.7
4329.32 35852.4
4332.19 35806.7
4335.07 35859.9
4337.94 35864.8
4340.81 35819.1
4343.68 35673
4346.55 35587.7
4349.42 35505.7
4352.29 35672.2
4355.16 35443.9
4358.03 35509.2
4360.9 35507.2
4363.77 35513.1
4366.65 35420.8
4369.52 35429.2
4372.39 35381.5
4375.26 35268.3
4378.13 35299.9
4381 35189.9
4383.87 35157.6
4386.74 35025.6
4389.61 35051.2
4392.48 34989.5
4395.35 34810.1
4398.23 34904.1
4401.1 34959.1
4403.97 34720.5
4406.84 34732.5
4409.71 34596.7
4412.58 34645.8
4415.45 34747.3
4418.32 34521.2
4421.19 34276.5
4424.06 34354.4
4426.93 34191.5
4429.81 34165.3
4432.68 34157.4
4435.55 34028.7
4438.42 33841.1
4441.29 33767.5
4444.16 33671.9
4447.03 33650.2
4449.9 33510.1
4452.77 33422.7
4455.64 33454.4
4458.51 33280.2
4461.39 33163.8
4464.26 32925.2
4467.13 32761.5
4470 32765.7
4472.87 32892.5
4475.74 32698.9
4478.61 32335.3
4481.48 32234.4
4484.35 32159.6
4487.22 31985.3
4490.09 31843.3
4492.97 31747.5
4495.84 31536.8
4498.71 31362.9
4501.58 31347.7
4504.45 31181.7
4507.32 30909.3
4510.19 30688.4
4513.06 30596.5
4515.93 30551.3
4518.8 30307.8
4521.67 30148
4524.55 29982.9
4527.42 29722.1
4530.29 29637.7
4533.16 29495.1
4536.03 29370.7
4538.9 29175.4
4541.77 28821.6
4544.64 28671.3
4547.51 28419.6
4550.38 28198
4553.25 28047.1
4556.13 27828.8
4559 27703.7
4561.87 27487.7
4564.74 27187.1
4567.61 26962.6
4570.48 26799.3
4573.35 26643
4576.22 26312.1
4579.09 26098.5
4581.96 26040.5
4584.83 25736
4587.71 25371.5
4590.58 25149.5
4593.45 25129.1
4596.32 24764.8
4599.19 24513.2
4602.06 24256.2
4604.93 23889
4607.8 23775.6
4610.67 23595.3
4613.54 23294.4
4616.41 23065.3
4619.29 22765.1
4622.16 22421.8
4625.03 22204.2
4627.9 21929.7
4630.77 21500.1
4633.64 21481.6
4636.51 21299.3
4639.38 20937.7
4642.25 20736.8
4645.12 20408.3
4647.99 20174.8
4650.87 19918.2
4653.74 19626.1
4656.61 19231.6
4659.48 19189.2
4662.35 18821
4665.22 18572.7
4668.09 18219.6
4670.96 17975
4673.83 17851.7
4676.7 17455.9
4679.57 17173.3
4682.45 16962.8
4685.32 16731.5
4688.19 16555.4
4691.06 16299.7
4693.93 16116.2
4696.8 15781.7
4699.67 15507.3
4702.54 15343.1
4705.41 14864.6
4708.28 14664.8
4711.15 14464.3
4714.03 14138.5
4716.9 13916.4
4719.77 13674
4722.64 13449.1
4725.51 13217.4
4728.38 13000.8
4731.25 12685.6
4734.12 12523.2
4736.99 12357.2
4739.86 12205.8
4742.73 11847.1
4745.6 11535.9
4748.48 11349.7
4751.35 11174.1
4754.22 10934
4757.09 10523.8
4759.96 10487.6
4762.83 10229.5
4765.7 10013.1
4768.57 9747.11
4771.44 9490.11
4774.31 9479.38
4777.18 9242.83
4780.06 9019.17
4782.93 8826.02
4785.8 8545.35
4788.67 8395.12
4791.54 8187.27
4794.41 7972.46
4797.28 7787.16
4800.15 7545.79
4803.02 7427.74
4805.89 7226.41
4808.76 7133.13
4811.64 6883.27
4814.51 6611.58
4817.38 6586.83
4820.25 6315.62
4823.12 6263.87
4825.99 6104.22
4828.86 5982.4
4831.73 5776.06
4834.6 5550.41
4837.47 5329.03
4840.34 5174.5
4843.22 5032.01
4846.09 4942.74
4848.96 4861.99
4851.83 4836.68
4854.7 4543.21
4857.57 4514.51
4860.44 4404.07
4863.31 4142.64
4866.18 4030.24
4869.05 3882.39
4871.92 3811.96
4874.8 3743.47
4877.67 3665.44
4880.54 3445.77
4883.41 3387.03
4886.28 3295.24
4889.15 3241.46
4892.02 3131.01
4894.89 3156.9
4897.76 2962.13
4900.63 2933.06
4903.5 2765.19
4906.38 2776.48
4909.25 2626.07
4912.12 2630.58
4914.99 2361.6
4917.86 2405.24
4920.73 2342.17
4923.6 2110.89
4926.47 2103.69
4929.34 2153.84
4932.21 2055.82
4935.08 1942.05
4937.96 1805.83
4940.83 1751.86
4943.7 1841.26
4946.57 1801.36
4949.44 1791.98
4952.31 1679.85
4955.18 1598.24
4958.05 1652.99
4960.92 1372.64
4963.79 1253.25
4966.67 1213.85
4969.54 1309.21
4972.41 1361.23
4975.28 1283.44
4978.15 1207.85
4981.02 1126.32
4983.89 1053.11
4986.76 1063.7
4989.63 1129.54
4992.5 986.991
4995.37 1008.61
4998.24 850.068
5001.12 983.934
5003.99 903.489
5006.86 833.338
5009.73 743.363
5012.6 764.341
5015.47 779.68
5018.34 684.535
5021.21 584.911
5024.08 581.138
5026.95 616.05
5029.82 634.476
5032.7 622.695
5035.57 578.172
5038.44 667.534
5041.31 475.351
5044.18 493.55
5047.05 545.657
5049.92 389.76
5052.79 286.112
5055.66 393.577
5058.53 359.969
5061.4 456.384
5064.28 434.794
5067.15 427
5070.02 400.864
5072.89 349.364
5075.76 301.776
5078.63 459.83
5081.5 410.641
5084.37 237.999
5087.24 338.805
5090.11 333.841
5092.98 270.03
5095.86 218.155
5098.73 298.336
5101.6 298.812
5104.47 244.321
5107.34 256.187
5110.21 276.55
5113.08 201.278
5115.95 284.216
5118.82 414.495
5121.69 278.598
5124.56 313.973
5127.44 352.636
5130.31 280.794
5133.18 294.852
5136.05 230.707
5138.92 256.307
5141.79 266.508
5144.66 324.077
5147.53 405.945
5150.4 350.914
5153.27 261.809
5156.14 384.883
5159.02 345.464
5161.89 416.903
5164.76 365.433
5167.63 226.62
5170.5 241.199
5173.37 291.702
5176.24 304.341
5179.11 438.037
5181.98 388.285
5184.85 290.117
5187.72 325.849
5190.6 461.783
5193.47 379.631
5196.34 326.99
5199.21 438.189
5202.08 339.529
5204.95 356.179
5207.82 373.299
5210.69 438.731
5213.56 393.634
5216.43 475.857
5219.3 493.836
5222.18 465.023
5225.05 404.459
5227.92 528.202
5230.79 469.744
5233.66 416.407
5236.53 430.946
5239.4 389.458
5242.27 478.549
5245.14 399.483
5248.01 559.659
5250.88 522.655
5253.75 458.315
5256.63 430.336
5259.5 442.061
5262.37 372.376
5265.24 439.8
5268.11 603.388
5270.98 570.262
5273.85 526.848
5276.72 469.383
5279.59 459.891
5282.46 476.4
5285.33 476.216
5288.21 483.836
5291.08 545.522
5293.95 490.326
5296.82 562.454
5299.69 540.775
5302.56 472.405
5305.43 545.444
5308.3 557.303
5311.17 504.082
5314.04 532.818
5316.92 547.776
5319.79 597.866
5322.66 529.592
5325.53 628.016
5328.4 659.366
5331.27 621.662
5334.14 677.863
5337.01 665.64
5339.88 685.942
5342.75 575.699
5345.62 567.409
5348.5 628.449
5351.37 633.74
5354.24 585.292
5357.11 655.317
5359.98 710.929
5362.85 653.485
5365.72 648.831
5368.59 684.052
5371.46 696.792
5374.33 779.531
5377.2 699.419
5380.07 629.492
5382.95 527.934
5385.82 473.754
5388.69 580.607
5391.56 627.927
5394.43 757.924
5397.3 655.221
5400.17 625.442
5403.04 538.686
5405.91 543.447
5408.78 595.221
5411.65 656.975
5414.53 554.908
5417.4 563.742
5420.27 688.016
5423.14 665.236
5426.01 565.128
5428.88 581.598
5431.75 596.217
5434.62 633.484
5437.49 663.969
5440.36 571.158
5443.23 532.275
5446.11 528.353
5448.98 571.798
5451.85 590.856
5454.72 554.396
5457.59 460.8
5460.46 421.967
5463.33 608.921
5466.2 610.096
5469.07 581.014
5471.94 568.686
5474.81 551.691
5477.69 501.993
5480.56 437.771
5483.43 427.273
5486.3 527.952
5489.17 496.556
5492.04 494.069
5494.91 522.143
5497.78 622.002
5500.65 554.096
5503.52 616.072
5506.4 719.293
5509.27 532.855
5512.14 660.577
5515.01 528.986
5517.88 381.373
5520.75 446.239
5523.62 405.808
5526.49 451.16
5529.36 482.66
5532.23 524.871
5535.1 463.422
5537.97 556.523
5540.85 578.129
5543.72 460.495
5546.59 422.707
5549.46 410.867
5552.33 440.677
5555.2 370.444
5558.07 425.872
5560.94 439.966
5563.81 487.886
5566.68 440.379
5569.55 549.701
5572.43 599.727
5575.3 450.4
5578.17 443.447
5581.04 377.308
5583.91 426.74
5586.78 509.438
5589.65 367.418
5592.52 394.799
5595.39 564.453
5598.26 612.808
5601.13 608.301
5604.01 587.956
5606.88 505.164
5609.75 468.461
5612.62 494.654
5615.49 424.071
5618.36 529.405
5621.23 505.023
5624.1 503.35
5626.97 459.489
5629.84 533.446
5632.71 558.558
5635.59 542.615
5638.46 484.677
5641.33 516.386
5644.2 472.764
5647.07 517.559
5649.94 491.605
5652.81 575.225
5655.68 504.43
5658.55 413.552
5661.42 431.535
5664.29 399.912
5667.17 501.1
5670.04 506.466
5672.91 435.391
5675.78 501.093
5678.65 495.12
5681.52 503.385
5684.39 464.314
5687.26 498.905
5690.13 558.296
5693 506.31
5695.87 514.017
5698.75 385.457
5701.62 454.738
5704.49 461.781
5707.36 474.565
5710.23 496.238
5713.1 522.808
5715.97 463.439
5718.84 472.598
5721.71 530.268
5724.58 514.563
5727.45 539.822
5730.33 473.806
5733.2 351.793
5736.07 498.787
5738.94 615.938
5741.81 509.822
5744.68 492.261
5747.55 290.292
5750.42 436.704
5753.29 425.392
5756.16 401.126
5759.03 379.476
5761.9 414.367
5764.78 615.221
5767.65 662.51
5770.52 555.951
5773.39 547.325
5776.26 405.75
5779.13 409.27
5782 436.298
5784.87 463.501
5787.74 543.291
5790.61 613.927
5793.48 588.163
5796.36 480.789
5799.23 534.872
5802.1 372.249
5804.97 456.075
5807.84 489.175
5810.71 506.721
5813.58 514.11
5816.45 387.245
5819.32 347.931
5822.19 482.479
5825.06 461.489
5827.94 499.26
5830.81 548.121
5833.68 484.211
5836.55 400.652
5839.42 537.919
5842.29 381.148
5845.16 426.945
5848.03 492.589
5850.9 431.602
5853.77 426.575
5856.65 447.978
5859.52 510.529
5862.39 572.724
5865.26 522.686
5868.13 429.204
5871 500.452
5873.87 506.863
5876.74 362.738
