scanname 扫描248
timestamp 1/1/1970 00:11
ccdbias 1675.13
ccdgain 2.46132
sigmaread 11.4449
laserwavenum -0.349725
wavenumcorrection -0.62263
scancount 2
totalexposurems 324
singleexposurems 162
measurementstate Unknown
scanmode Identification
snr 7.14621 7.14621 7.14621
replacelist 0
peaks 27
253.409 0.0360363 0 0.330376 1.54226e-05
296.295 0.0365216 0 4.28459 0.000164319
357.301 0.0303744 0 1.15938 4.32519e-05
382.093 0.042324 0 5.92227 0.000231676
414.662 0.0295829 0 1.03661 7.15816e-05
455.777 0.039403 0 4.24106 0.00018041
587.093 0.0357751 0 2.10162 0.000118165
645.096 0.0271692 0 0.814466 4.38211e-05
737.323 0.025555 0 0.46342 2.34184e-05
758.841 0.028172 0 1.74906 0.000117303
805.209 0.0388939 0 6.48466 0.000351718
834.182 0.0511311 0 10.4376 0.000582131
911.368 0.0235617 0 0.211734 1.40985e-05
945.35 0.0243514 0 0.380973 4.10448e-05
1136.58 0.0245949 0 0.574298 5.89718e-05
1163.52 0.0235137 0 0.341775 4.94304e-05
1196.68 0.0339959 0 1.78876 0.000197124
1253.39 0.030345 0 2.05661 0.000226182
1348.64 0.0740979 0 3.96794 0.000526152
1357.96 0.0949998 0 6.31741 0.000853509
1371.61 0.0379454 0 0.651007 2.38153e-05
1382.35 0.0357124 0 0.700819 9.61798e-05
1385.62 0.0394636 0 0.32006 1.29243e-05
1473.22 0.0214149 0 0.258979 2.05608e-05
1537.02 0.0337522 0 1.00999 0.000149848
1567.6 0.0292345 0 1.27278 0.00026183
1606.5 0.0415214 0 2.96497 0.000495294
finalresult No match found 1A12587	1.61147e-17
spectrum 2048
-91.4342 0.00234034
-88.8362 0.000595118
-86.2398 0.0705172
-83.6453 0.16124
-81.0523 0.173619
-78.4612 0.111476
-75.8717 0.155009
-73.2838 0.147863
-70.6978 0.162929
-68.1134 0.130564
-65.5307 0.208066
-62.9497 0.14245
-60.3705 0.200646
-57.7928 0.2414
-55.2169 0.212855
-52.6427 0.214305
-50.0702 0.24259
-47.4995 0.214113
-44.9303 0.213213
-42.3629 0.20076
-39.7971 0.243683
-37.233 0.250591
-34.6707 0.248336
-32.1099 0.24964
-29.5509 0.26177
-26.9935 0.280161
-24.438 0.26793
-21.884 0.280884
-19.3316 0.294845
-16.781 0.327434
-14.232 0.33562
-11.6848 0.391475
-9.13913 0.427248
-6.59528 0.462408
-4.053 0.32797
-1.51234 0.267267
1.02649 0.268418
3.56384 0.269437
6.09934 0.232202
8.63328 0.198264
11.1655 0.171851
13.6961 0.193181
16.2251 0.219973
18.7523 0.228078
21.2779 0.211188
23.8019 0.206791
26.3242 0.200871
28.8449 0.203052
31.3639 0.216118
33.8812 0.201139
36.3969 0.211757
38.911 0.211275
41.4233 0.186186
43.9341 0.184369
46.4432 0.179811
48.9507 0.177705
51.4565 0.154524
53.9606 0.169363
56.4632 0.159351
58.9641 0.133086
61.4633 0.131514
63.9609 0.117259
66.4569 0.115002
68.9513 0.108722
71.444 0.133338
73.935 0.0928485
76.4244 0.144608
78.9123 0.0953577
81.3984 0.0779171
83.883 0.165641
86.3659 0.114646
88.8472 0.0746107
91.3269 0.136068
93.8049 0.0829743
96.2814 0.0597563
98.7561 0.0790077
101.23 0.071967
103.701 0.0947081
106.171 0.0889535
108.64 0.120237
111.106 0.100286
113.571 0.0842573
116.035 0.11852
118.497 0.0564873
120.957 0.0950012
123.416 0.113168
125.873 0.0829379
128.328 0.0946649
130.782 0.0829962
133.234 0.0854924
135.685 0.0737167
138.134 0.0681006
140.581 0.0640063
143.027 0.0570849
145.471 0.0539436
147.914 0.0503143
150.355 0.0453619
152.794 0.0450904
155.232 0.0442705
157.669 0.0429153
160.103 0.0434573
162.536 0.0442468
164.968 0.0509736
167.398 0.0600164
169.826 0.0738192
172.253 0.091657
174.678 0.109243
177.101 0.111379
179.523 0.0981273
181.944 0.0758532
184.362 0.0604102
186.78 0.0508106
189.195 0.0448129
191.609 0.0446637
194.022 0.0416459
196.433 0.0393616
198.842 0.0349773
201.25 0.0349449
203.656 0.0329331
206.061 0.0321965
208.464 0.0313948
210.865 0.0308687
213.265 0.0301935
215.664 0.0297678
218.06 0.0305303
220.456 0.0294731
222.849 0.0296599
225.241 0.0298561
227.632 0.0284024
230.021 0.0298534
232.408 0.028924
234.794 0.0297879
237.178 0.0298657
239.561 0.0313
241.942 0.0306333
244.322 0.0336411
246.7 0.0337211
249.077 0.0350763
251.452 0.0359568
253.825 0.0367645
256.197 0.0353051
258.568 0.0348078
260.937 0.0354412
263.304 0.0344655
265.67 0.0347802
268.034 0.0324
270.396 0.0315481
272.758 0.0299778
275.117 0.0288679
277.475 0.0282102
279.832 0.0277453
282.187 0.0276368
284.54 0.0272638
286.892 0.0276426
289.243 0.0289445
291.591 0.0315757
293.939 0.0358497
296.285 0.0374655
298.629 0.0355247
300.972 0.0323166
303.313 0.0286719
305.653 0.0274766
307.991 0.0268228
310.328 0.0256117
312.663 0.02511
314.996 0.0258444
317.328 0.0260036
319.659 0.0252688
321.988 0.0253391
324.316 0.0254367
326.642 0.0255184
328.966 0.0262892
331.29 0.0267497
333.611 0.0262279
335.931 0.0271525
338.25 0.0276138
340.567 0.0275215
342.882 0.0274658
345.196 0.0264877
347.509 0.0261311
349.82 0.0273653
352.129 0.0298534
354.437 0.0301104
356.744 0.0314993
359.049 0.0296699
361.352 0.0291712
363.654 0.027399
365.955 0.0282505
368.254 0.0261592
370.552 0.0273506
372.848 0.0284504
375.142 0.031574
377.435 0.0364643
379.727 0.0411138
382.017 0.0423937
384.306 0.0421117
386.593 0.0367241
388.878 0.0318763
391.163 0.0293601
393.445 0.0280274
395.727 0.0260941
398.006 0.0280189
400.285 0.0259737
402.562 0.0262159
404.837 0.0269578
407.111 0.0261657
409.383 0.0269315
411.654 0.0285358
413.924 0.0290312
416.191 0.0299458
418.458 0.0299252
420.723 0.025954
422.987 0.0268817
425.249 0.0257758
427.509 0.0252866
429.769 0.0253298
432.026 0.0259166
434.283 0.0254062
436.537 0.0253344
438.791 0.0252175
441.043 0.0264265
443.293 0.026725
445.542 0.0278047
447.79 0.0300574
450.036 0.0330809
452.28 0.0373098
454.523 0.0400866
456.765 0.0391031
459.005 0.0365779
461.244 0.034085
463.482 0.0289845
465.718 0.0279644
467.952 0.0266688
470.185 0.0258497
472.417 0.0253675
474.647 0.0254603
476.876 0.0237141
479.103 0.0249196
481.329 0.0245676
483.553 0.0239991
485.776 0.0239582
487.998 0.0246841
490.218 0.0246137
492.437 0.0239269
494.654 0.0249644
496.87 0.0239639
499.084 0.0253312
501.297 0.0245822
503.508 0.0240495
505.719 0.0233887
507.927 0.0246237
510.135 0.0244521
512.34 0.0243073
514.545 0.0233637
516.748 0.0244699
518.949 0.0250125
521.15 0.0246454
523.348 0.0241803
525.546 0.026183
527.742 0.0248465
529.936 0.0247807
532.129 0.0246855
534.321 0.0249141
536.511 0.0251907
538.7 0.025166
540.887 0.0245694
543.073 0.0249022
545.258 0.025097
547.441 0.0264685
549.623 0.0240605
551.803 0.0253379
553.983 0.023633
556.16 0.0254383
558.336 0.023395
560.511 0.0250353
562.685 0.0251822
564.857 0.0249687
567.027 0.0256933
569.196 0.0253734
571.364 0.0250072
573.531 0.025502
575.696 0.026086
577.859 0.0278564
580.022 0.029729
582.183 0.033017
584.342 0.0345982
586.5 0.0369946
588.657 0.0345584
590.812 0.0337153
592.966 0.0321213
595.119 0.0305797
597.27 0.02905
599.42 0.0275525
601.568 0.0259121
603.715 0.0253883
605.861 0.0252665
608.005 0.0245145
610.148 0.0242147
612.29 0.0249561
614.43 0.0233499
616.569 0.0233272
618.706 0.0236832
620.842 0.0245015
622.977 0.0233092
625.11 0.0241685
627.242 0.0242166
629.373 0.0252211
631.502 0.0242491
633.63 0.0250496
635.756 0.0239664
637.881 0.0246056
640.005 0.024994
642.127 0.026596
644.248 0.0279106
646.368 0.02758
648.487 0.026607
650.604 0.0256083
652.719 0.0245464
654.833 0.024331
656.946 0.0240431
659.058 0.0238738
661.168 0.0231302
663.277 0.0238625
665.384 0.0237552
667.491 0.0241386
669.595 0.0236983
671.699 0.0236283
673.801 0.0237446
675.902 0.0243061
678.001 0.0228618
680.099 0.0241907
682.196 0.0233472
684.292 0.0236371
686.386 0.0249789
688.478 0.0244321
690.57 0.0242079
692.66 0.0247748
694.749 0.0234164
696.836 0.0238399
698.922 0.0243107
701.007 0.0236797
703.09 0.0239969
705.172 0.023773
707.253 0.0242276
709.333 0.0229245
711.411 0.0222056
713.487 0.0236429
715.563 0.0230265
717.637 0.0230899
719.71 0.0228859
721.781 0.0227527
723.851 0.0232081
725.92 0.0225924
727.988 0.0237987
730.054 0.0246572
732.119 0.0239846
734.182 0.0245578
736.245 0.0260919
738.306 0.0255741
740.365 0.0258828
742.424 0.0250853
744.481 0.024502
746.536 0.0231262
748.591 0.0235603
750.644 0.0234898
752.696 0.0234085
754.746 0.0263105
756.795 0.0286167
758.843 0.0277633
760.889 0.0272473
762.935 0.0260295
764.979 0.024063
767.021 0.0234821
769.063 0.0239883
771.103 0.0230029
773.141 0.0244357
775.179 0.0251217
777.215 0.0235869
779.25 0.0249514
781.284 0.0244887
783.316 0.023288
785.347 0.0237655
787.377 0.0221641
789.405 0.0234769
791.432 0.0239391
793.458 0.0236286
795.482 0.0231819
797.506 0.0257504
799.528 0.0272103
801.548 0.0338049
803.568 0.0393518
805.586 0.0389882
807.603 0.0366981
809.618 0.0302105
811.633 0.0255651
813.646 0.0235682
815.657 0.0240847
817.668 0.0238414
819.677 0.0237931
821.685 0.0234941
823.692 0.0238954
825.697 0.0249347
827.701 0.0284081
829.704 0.0367673
831.706 0.0467295
833.706 0.0523505
835.705 0.0516476
837.703 0.0425216
839.699 0.0333812
841.694 0.0276504
843.688 0.0263176
845.681 0.0242987
847.672 0.0243487
849.663 0.0246211
851.652 0.0252429
853.639 0.026209
855.626 0.0239136
857.611 0.0239726
859.595 0.0237757
861.577 0.022966
863.559 0.0230212
865.539 0.0240043
867.518 0.0223792
869.495 0.0235677
871.472 0.0233352
873.447 0.0229421
875.421 0.0229345
877.393 0.0223101
879.365 0.0232201
881.335 0.0224274
883.304 0.0225179
885.272 0.0223854
887.238 0.0238201
889.203 0.023098
891.167 0.0201857
893.13 0.0217419
895.091 0.0216728
897.051 0.0222484
899.01 0.0222723
900.968 0.0224927
902.925 0.0217305
904.88 0.0234688
906.834 0.0225087
908.787 0.0238773
910.738 0.0240014
912.689 0.0234329
914.638 0.0232541
916.586 0.0238523
918.532 0.0224838
920.478 0.0219935
922.422 0.0214911
924.365 0.0216453
926.307 0.021787
928.247 0.0221586
930.187 0.0217285
932.125 0.020985
934.062 0.0212212
935.997 0.0216311
937.932 0.0224268
939.865 0.0232465
941.797 0.0225651
943.728 0.024595
945.657 0.024852
947.586 0.0243309
949.513 0.0234563
951.439 0.0228892
953.363 0.0216042
955.287 0.0219524
957.209 0.0219851
959.13 0.0216075
961.05 0.0216298
962.969 0.0216541
964.886 0.0212499
966.803 0.0199883
968.718 0.0221774
970.632 0.0211707
972.544 0.0207335
974.456 0.0215799
976.366 0.0227828
978.275 0.0216164
980.183 0.0230482
982.09 0.0214218
983.995 0.0202989
985.899 0.0216899
987.802 0.0208562
989.704 0.0195523
991.605 0.0208196
993.504 0.0211966
995.403 0.0202952
997.3 0.0210311
999.196 0.0215719
1001.09 0.021016
1002.98 0.0201661
1004.87 0.0216876
1006.76 0.0205511
1008.65 0.0217798
1010.54 0.0207725
1012.43 0.0206339
1014.32 0.0213521
1016.2 0.0214585
1018.09 0.0201583
1019.97 0.0204812
1021.85 0.020788
1023.73 0.0218508
1025.61 0.0201557
1027.49 0.0218002
1029.37 0.0202057
1031.24 0.0219452
1033.12 0.0219742
1034.99 0.0211895
1036.86 0.0209378
1038.73 0.0225823
1040.6 0.020708
1042.47 0.0212297
1044.34 0.0201669
1046.21 0.0209487
1048.07 0.0217498
1049.94 0.0210639
1051.8 0.0188686
1053.66 0.0196516
1055.52 0.020324
1057.38 0.0208229
1059.24 0.0217779
1061.1 0.0205933
1062.95 0.0200612
1064.81 0.0205205
1066.66 0.0208922
1068.51 0.0192067
1070.37 0.0198004
1072.22 0.020229
1074.07 0.0200573
1075.91 0.0200398
1077.76 0.0207038
1079.61 0.0213426
1081.45 0.0213813
1083.29 0.0199791
1085.14 0.0212615
1086.98 0.020995
1088.82 0.021943
1090.66 0.0202341
1092.49 0.0218497
1094.33 0.0211685
1096.16 0.0200337
1098 0.0203928
1099.83 0.0200748
1101.66 0.0195641
1103.49 0.0205871
1105.32 0.0199056
1107.15 0.0200031
1108.98 0.0211292
1110.81 0.0198528
1112.63 0.019973
1114.45 0.0207728
1116.28 0.0215634
1118.1 0.0202411
1119.92 0.0206525
1121.74 0.0222305
1123.56 0.0203067
1125.37 0.0209973
1127.19 0.0219387
1129.01 0.0212058
1130.82 0.0229975
1132.63 0.0235698
1134.44 0.0235189
1136.25 0.0247656
1138.06 0.0248853
1139.87 0.0241516
1141.68 0.0229734
1143.48 0.0216461
1145.29 0.0216312
1147.09 0.0210559
1148.89 0.0197232
1150.7 0.0196729
1152.5 0.0207602
1154.3 0.0204538
1156.09 0.0206886
1157.89 0.0218818
1159.69 0.0228373
1161.48 0.0229048
1163.27 0.025051
1165.07 0.0231977
1166.86 0.0216426
1168.65 0.0222193
1170.44 0.0216325
1172.23 0.0198662
1174.01 0.0205741
1175.8 0.0213173
1177.58 0.0212038
1179.37 0.0214591
1181.15 0.0211893
1182.93 0.021881
1184.71 0.0229788
1186.49 0.0246478
1188.27 0.0253698
1190.05 0.0273852
1191.82 0.0305107
1193.6 0.0317252
1195.37 0.0340093
1197.14 0.0346681
1198.91 0.0323369
1200.68 0.0310705
1202.45 0.0268004
1204.22 0.0232124
1205.99 0.020993
1207.76 0.0213502
1209.52 0.0209376
1211.28 0.0195433
1213.05 0.0201915
1214.81 0.0204342
1216.57 0.0201854
1218.33 0.0203312
1220.09 0.0202984
1221.85 0.0208319
1223.6 0.0191508
1225.36 0.0187108
1227.11 0.0185243
1228.86 0.0207569
1230.62 0.0197679
1232.37 0.0202377
1234.12 0.0197213
1235.86 0.0189939
1237.61 0.020529
1239.36 0.0201393
1241.1 0.0191531
1242.85 0.020707
1244.59 0.019895
1246.33 0.0217741
1248.08 0.0238302
1249.82 0.0275226
1251.56 0.029871
1253.29 0.030197
1255.03 0.0298116
1256.77 0.0273871
1258.5 0.0246763
1260.23 0.0223461
1261.97 0.0199063
1263.7 0.0208113
1265.43 0.0201716
1267.16 0.0197814
1268.89 0.0205334
1270.61 0.0208131
1272.34 0.0202094
1274.07 0.0215762
1275.79 0.020807
1277.51 0.0211893
1279.23 0.0209605
1280.96 0.0213638
1282.68 0.0209272
1284.39 0.0206556
1286.11 0.0206178
1287.83 0.0220145
1289.54 0.0214827
1291.26 0.022176
1292.97 0.0214234
1294.69 0.0220216
1296.4 0.0221314
1298.11 0.0215808
1299.82 0.0220452
1301.52 0.0233945
1303.23 0.0228779
1304.94 0.024422
1306.64 0.0244799
1308.35 0.0237596
1310.05 0.0236144
1311.75 0.0253419
1313.45 0.0237259
1315.15 0.0247746
1316.85 0.024618
1318.55 0.0258787
1320.25 0.0277618
1321.94 0.0272657
1323.64 0.0254964
1325.33 0.0282023
1327.02 0.0271192
1328.72 0.0288499
1330.41 0.0293232
1332.1 0.0288567
1333.79 0.0293464
1335.47 0.0310926
1337.16 0.0323233
1338.84 0.0356282
1340.53 0.0401639
1342.21 0.0512946
1343.89 0.0624239
1345.58 0.0686433
1347.26 0.0745975
1348.94 0.0733973
1350.61 0.0719808
1352.29 0.0752297
1353.97 0.0813225
1355.64 0.089177
1357.32 0.0969001
1358.99 0.0943752
1360.66 0.087926
1362.33 0.077196
1364 0.0650217
1365.67 0.0560385
1367.34 0.0513669
1369.01 0.0442727
1370.67 0.0390138
1372.34 0.0394
1374 0.036623
1375.67 0.0361513
1377.33 0.0366723
1378.99 0.0343736
1380.65 0.0354846
1382.31 0.0356575
1383.96 0.0364424
1385.62 0.034683
1387.28 0.0323441
1388.93 0.031678
1390.59 0.029119
1392.24 0.026552
1393.89 0.0259612
1395.54 0.0238689
1397.19 0.0226243
1398.84 0.0231096
1400.49 0.0241458
1402.14 0.0227466
1403.78 0.0234626
1405.43 0.0243641
1407.07 0.0235295
1408.71 0.0222871
1410.35 0.0230878
1412 0.0220299
1413.64 0.0209947
1415.27 0.0216612
1416.91 0.0210028
1418.55 0.0210965
1420.18 0.0205205
1421.82 0.020701
1423.45 0.0198073
1425.09 0.0200815
1426.72 0.0199707
1428.35 0.0212689
1429.98 0.0203991
1431.61 0.0210589
1433.24 0.0204962
1434.86 0.0200464
1436.49 0.0221379
1438.11 0.0214237
1439.74 0.0204413
1441.36 0.0212573
1442.98 0.0198706
1444.6 0.020225
1446.22 0.0187749
1447.84 0.018864
1449.46 0.0202786
1451.08 0.0204364
1452.69 0.0197304
1454.31 0.0194279
1455.92 0.0201978
1457.54 0.0200119
1459.15 0.0208055
1460.76 0.0210267
1462.37 0.0182499
1463.98 0.0206916
1465.59 0.0204167
1467.2 0.0203182
1468.8 0.0208114
1470.41 0.0206614
1472.01 0.0213388
1473.62 0.0221517
1475.22 0.0227379
1476.82 0.0201768
1478.42 0.0212473
1480.02 0.0190387
1481.62 0.0200545
1483.22 0.0193248
1484.81 0.0191645
1486.41 0.017104
1488 0.0197318
1489.6 0.0190959
1491.19 0.0177611
1492.78 0.019024
1494.37 0.0195464
1495.96 0.0179182
1497.55 0.018345
1499.14 0.0184199
1500.73 0.0179704
1502.31 0.0195743
1503.9 0.0182658
1505.48 0.0189295
1507.06 0.0210853
1508.65 0.0185119
1510.23 0.0197417
1511.81 0.0193319
1513.39 0.0209396
1514.97 0.018379
1516.54 0.0186349
1518.12 0.0199333
1519.7 0.0200121
1521.27 0.0212571
1522.84 0.0226926
1524.42 0.0220915
1525.99 0.0226591
1527.56 0.0243497
1529.13 0.0250611
1530.7 0.0273422
1532.27 0.0306846
1533.83 0.0322528
1535.4 0.0347908
1536.97 0.0320759
1538.53 0.0339316
1540.09 0.0313182
1541.66 0.0315677
1543.22 0.027781
1544.78 0.027572
1546.34 0.0289945
1547.9 0.0278764
1549.45 0.0297399
1551.01 0.0299965
1552.57 0.0276789
1554.12 0.0268048
1555.67 0.023746
1557.23 0.0237943
1558.78 0.0233375
1560.33 0.021595
1561.88 0.0211162
1563.43 0.0243063
1564.98 0.0273852
1566.53 0.0280075
1568.07 0.0296861
1569.62 0.0295052
1571.16 0.0249946
1572.71 0.0252909
1574.25 0.0216535
1575.79 0.0206858
1577.33 0.0205983
1578.87 0.0201515
1580.41 0.0180662
1581.95 0.0209778
1583.49 0.0193349
1585.02 0.019623
1586.56 0.0201623
1588.09 0.020715
1589.63 0.0212748
1591.16 0.0229892
1592.69 0.0221559
1594.22 0.0230834
1595.75 0.0227133
1597.28 0.0251573
1598.81 0.0249944
1600.34 0.0285314
1601.86 0.0314733
1603.39 0.0360965
1604.91 0.0394722
1606.43 0.0422841
1607.96 0.040757
1609.48 0.0371958
1611 0.0311812
1612.52 0.027256
1614.04 0.0244615
1615.56 0.0212282
1617.07 0.018909
1618.59 0.0193911
1620.1 0.0192757
1621.62 0.0187646
1623.13 0.016762
1624.65 0.0185161
1626.16 0.0165961
1627.67 0.0169351
1629.18 0.0170208
1630.69 0.0179102
1632.19 0.0166536
1633.7 0.0164217
1635.21 0.0169492
1636.71 0.0167973
1638.22 0.0171182
1639.72 0.0160634
1641.22 0.0158707
1642.73 0.0157121
1644.23 0.0171194
1645.73 0.0154092
1647.23 0.0160367
1648.72 0.0167101
1650.22 0.0169221
1651.72 0.0162986
1653.21 0.0159163
1654.71 0.0162288
1656.2 0.0162792
1657.69 0.015351
1659.19 0.0157328
1660.68 0.0158478
1662.17 0.0157049
1663.66 0.014607
1665.15 0.0152
1666.63 0.015986
1668.12 0.0150491
1669.6 0.0165327
1671.09 0.0155641
1672.57 0.0156161
1674.06 0.0156414
1675.54 0.01435
1677.02 0.0147071
1678.5 0.014534
1679.98 0.0143041
1681.46 0.016921
1682.94 0.0150516
1684.41 0.0155992
1685.89 0.0157947
1687.36 0.0162704
1688.84 0.0140634
1690.31 0.0148348
1691.78 0.014362
1693.26 0.0138769
1694.73 0.015519
1696.2 0.0154014
1697.67 0.0139844
1699.13 0.0143121
1700.6 0.0153519
1702.07 0.0158184
1703.53 0.0153468
1705 0.0150511
1706.46 0.0150727
1707.92 0.0151495
1709.39 0.0140833
1710.85 0.0155655
1712.31 0.0156897
1713.77 0.0146632
1715.23 0.0134705
1716.68 0.0172215
1718.14 0.0152323
1719.6 0.0161844
1721.05 0.0155886
1722.51 0.015434
1723.96 0.0131273
1725.41 0.013882
1726.86 0.0137926
1728.31 0.0146078
1729.76 0.0143045
1731.21 0.0139228
1732.66 0.014716
1734.11 0.0145182
1735.56 0.0143226
1737 0.0141728
1738.45 0.0133334
1739.89 0.0144779
1741.33 0.0146951
1742.77 0.0140734
1744.22 0.013594
1745.66 0.0146543
1747.1 0.013633
1748.53 0.0139126
1749.97 0.015901
1751.41 0.0143248
1752.85 0.0151433
1754.28 0.0143336
1755.72 0.0158422
1757.15 0.013432
1758.58 0.0138776
1760.01 0.0142181
1761.45 0.0131788
1762.88 0.0126003
1764.31 0.0133294
1765.73 0.0138009
1767.16 0.0134329
1768.59 0.0129475
1770.01 0.0154137
1771.44 0.0131558
1772.86 0.0148804
1774.29 0.0151922
1775.71 0.0136898
1777.13 0.0145812
1778.55 0.0135937
1779.97 0.0134731
1781.39 0.0134738
1782.81 0.0145785
1784.23 0.0135958
1785.65 0.0140494
1787.06 0.0140016
1788.48 0.0121417
1789.89 0.0140338
1791.3 0.0146786
1792.72 0.0136704
1794.13 0.0142922
1795.54 0.0147842
1796.95 0.0117125
1798.36 0.0152333
1799.77 0.0135488
1801.18 0.0124802
1802.58 0.0156893
1803.99 0.0146187
1805.39 0.0142825
1806.8 0.014186
1808.2 0.0139409
1809.6 0.0130402
1811.01 0.0134694
1812.41 0.0144634
1813.81 0.0148305
1815.21 0.0143854
1816.6 0.0143084
1818 0.0134892
1819.4 0.0155243
1820.79 0.0141046
1822.19 0.0131699
1823.58 0.0153047
1824.98 0.0148341
1826.37 0.0139277
1827.76 0.0152806
1829.15 0.0137897
1830.54 0.0128102
1831.93 0.0144718
1833.32 0.0144027
1834.71 0.0147497
1836.1 0.0147615
1837.48 0.0136733
1838.87 0.0145538
1840.25 0.0150909
1841.64 0.0128113
1843.02 0.0135455
1844.4 0.0140303
1845.78 0.0141021
1847.16 0.0121722
1848.54 0.014369
1849.92 0.013357
1851.3 0.0123446
1852.68 0.0135229
1854.05 0.0147198
1855.43 0.01258
1856.8 0.013676
1858.18 0.0133768
1859.55 0.0124854
1860.92 0.0142125
1862.29 0.0149155
1863.66 0.0135502
1865.03 0.012305
1866.4 0.0153667
1867.77 0.0111325
1869.14 0.013835
1870.51 0.012681
1871.87 0.0128488
1873.24 0.012715
1874.6 0.0137244
1875.97 0.0127857
1877.33 0.0126392
1878.69 0.0127011
1880.05 0.0128528
1881.41 0.0118555
1882.77 0.0117053
1884.13 0.0112115
1885.49 0.0138629
1886.84 0.012148
1888.2 0.013033
1889.56 0.0121239
1890.91 0.0139121
1892.26 0.0133334
1893.62 0.0103151
1894.97 0.0113856
1896.32 0.0124653
1897.67 0.0115523
1899.02 0.0128042
1900.37 0.0116317
1901.72 0.0133339
1903.07 0.012593
1904.41 0.0121384
1905.76 0.0108979
1907.1 0.0127954
1908.45 0.0127342
1909.79 0.0146678
1911.14 0.011918
1912.48 0.0134246
1913.82 0.0106461
1915.16 0.0129164
1916.5 0.0125763
1917.84 0.0131894
1919.18 0.0131645
1920.51 0.012404
1921.85 0.0147521
1923.19 0.0126927
1924.52 0.0118601
1925.85 0.0129688
1927.19 0.0112969
1928.52 0.0134417
1929.85 0.0158883
1931.18 0.0125648
1932.51 0.0104869
1933.84 0.0131889
1935.17 0.0118811
1936.5 0.0128887
1937.83 0.0145285
1939.15 0.0112065
1940.48 0.0121453
1941.8 0.0121556
1943.13 0.0130138
1944.45 0.0116228
1945.77 0.0141164
1947.09 0.0118103
1948.41 0.0117869
1949.73 0.0137603
1951.05 0.0115892
1952.37 0.0114071
1953.69 0.0112808
1955.01 0.0097474
1956.32 0.0120308
1957.64 0.0129072
1958.95 0.0118169
1960.27 0.00956938
1961.58 0.0115986
1962.89 0.0125109
1964.2 0.0109242
1965.52 0.0126664
1966.83 0.0106217
1968.14 0.0124276
1969.44 0.0123728
1970.75 0.0103819
1972.06 0.0127663
1973.36 0.0113481
1974.67 0.0126023
1975.97 0.0112407
1977.28 0.0132532
1978.58 0.0137625
1979.88 0.013193
1981.19 0.0113053
1982.49 0.0146358
1983.79 0.0112429
1985.09 0.0123704
1986.38 0.0129735
1987.68 0.0112369
1988.98 0.0129642
1990.28 0.0143755
1991.57 0.0124376
1992.87 0.0124739
1994.16 0.010947
1995.45 0.0123221
1996.75 0.0127519
1998.04 0.0135245
1999.33 0.0114511
2000.62 0.014525
2001.91 0.0138652
2003.2 0.0132821
2004.49 0.0116798
2005.77 0.0127943
2007.06 0.0132082
2008.34 0.0116091
2009.63 0.011174
2010.91 0.0104105
2012.2 0.0131933
2013.48 0.0126131
2014.76 0.0110976
2016.04 0.0131419
2017.32 0.0116484
2018.6 0.0121606
2019.88 0.00941029
2021.16 0.0142825
2022.44 0.00949857
2023.71 0.00967218
2024.99 0.0135352
2026.27 0.0119695
2027.54 0.0116152
2028.81 0.00959902
2030.09 0.0094964
2031.36 0.009793
2032.63 0.0104648
2033.9 0.0116839
2035.17 0.0126802
2036.44 0.0105867
2037.71 0.0107052
2038.98 0.0109702
2040.24 0.0136056
2041.51 0.012267
2042.77 0.0107933
2044.04 0.0115469
2045.3 0.00998446
2046.57 0.0128955
2047.83 0.0111062
2049.09 0.0112376
2050.35 0.0136387
2051.61 0.0121238
2052.87 0.0124618
2054.13 0.0118964
2055.39 0.0118051
2056.65 0.0110248
2057.9 0.0127486
2059.16 0.0129907
2060.41 0.0102811
2061.67 0.0125803
2062.92 0.0103038
2064.18 0.00901237
2065.43 0.0117601
2066.68 0.013187
2067.93 0.00942893
2069.18 0.0139395
2070.43 0.0100147
2071.68 0.00999686
2072.93 0.0140528
2074.17 0.0123139
2075.42 0.0110153
2076.66 0.0110316
2077.91 0.0104508
2079.15 0.0115143
2080.4 0.0136941
2081.64 0.0117333
2082.88 0.0120094
2084.12 0.0103538
2085.36 0.0113595
2086.6 0.00995965
2087.84 0.012396
2089.08 0.0129591
2090.32 0.0109802
2091.55 0.0116228
2092.79 0.0132665
2094.03 0.00993178
2095.26 0.0115807
2096.5 0.0109839
2097.73 0.0118991
2098.96 0.0102068
2100.19 0.0109515
2101.42 0.0145583
2102.65 0.0112817
2103.88 0.0130555
2105.11 0.0105931
2106.34 0.0110656
2107.57 0.0125247
2108.8 0.0109253
2110.02 0.0123892
2111.25 0.0129464
2112.47 0.00926127
2113.7 0.0112628
2114.92 0.0113941
2116.14 0.0119062
2117.36 0.01043
2118.58 0.0119581
2119.8 0.0140723
2121.02 0.0111685
2122.24 0.0106823
2123.46 0.0132536
2124.68 0.00928314
2125.89 0.0126895
2127.11 0.0100599
2128.33 0.00917888
2129.54 0.0109497
2130.75 0.00944179
2131.97 0.0110965
2133.18 0.0119636
2134.39 0.0104099
2135.6 0.0110768
2136.81 0.0114766
2138.02 0.0101597
2139.23 0.00988603
2140.44 0.00856393
2141.65 0.0111143
2142.85 0.0110919
2144.06 0.0116222
2145.27 0.0107544
2146.47 0.01083
2147.67 0.00825928
2148.88 0.00948602
2150.08 0.0128884
2151.28 0.0112532
2152.48 0.0108534
2153.68 0.0124982
2154.88 0.012585
2156.08 0.009416
2157.28 0.0102537
2158.48 0.015004
2159.67 0.0104968
2160.87 0.010647
2162.07 0.0122861
2163.26 0.0101995
2164.45 0.00821241
2165.65 0.0107176
2166.84 0.00901628
2168.03 0.0125197
2169.22 0.0124189
2170.41 0.0115196
2171.6 0.0130334
2172.79 0.0109628
2173.98 0.00837689
2175.17 0.0124334
2176.36 0.0113907
2177.54 0.0131784
2178.73 0.0107691
2179.91 0.0108902
2181.1 0.0117859
2182.28 0.0123405
2183.46 0.00992286
2184.65 0.00928921
2185.83 0.0125538
2187.01 0.0126231
2188.19 0.0128599
2189.37 0.0113704
2190.55 0.00980603
2191.72 0.00900071
2192.9 0.0107246
2194.08 0.0126672
2195.25 0.00765211
2196.43 0.0118694
2197.6 0.0125936
2198.78 0.0120195
2199.95 0.0109455
2201.12 0.00909041
2202.3 0.0116429
2203.47 0.0105281
2204.64 0.0110704
2205.81 0.0107754
2206.98 0.0131641
2208.14 0.0108471
2209.31 0.0100456
2210.48 0.0110146
2211.64 0.0115625
2212.81 0.00893514
2213.97 0.00966629
2215.14 0.0108597
2216.3 0.0121251
2217.47 0.0127272
2218.63 0.0121678
2219.79 0.00831456
2220.95 0.0113248
2222.11 0.0139024
2223.27 0.00605635
2224.43 0.012505
2225.59 0.0102493
2226.74 0.0086232
2227.9 0.011405
2229.06 0.0107057
2230.21 0.0104901
2231.37 0.0104189
2232.52 0.011855
2233.67 0.0105087
2234.83 0.00860798
2235.98 0.0129735
2237.13 0.0112218
2238.28 0.0125623
2239.43 0.0120373
2240.58 0.0120657
2241.73 0.0105421
2242.87 0.0111942
2244.02 0.0113273
2245.17 0.0115226
2246.31 0.0102097
2247.46 0.00858189
2248.6 0.0124951
2249.75 0.0146603
2250.89 0.00769253
2252.03 0.0108912
2253.17 0.0107354
2254.31 0.0121872
2255.45 0.0120803
2256.59 0.0125084
2257.73 0.0112651
2258.87 0.0127129
2260.01 0.01224
2261.15 0.00792455
2262.28 0.011798
2263.42 0.0109816
2264.55 0.0106939
2265.69 0.0110766
2266.82 0.0109863
2267.95 0.00987317
2269.09 0.0134699
2270.22 0.00924633
2271.35 0.0108364
2272.48 0.00945609
2273.61 0.0130733
2274.74 0.0112821
2275.87 0.0127396
2276.99 0.0116305
2278.12 0.0102571
2279.25 0.0115337
2280.37 0.00959107
2281.5 0.0105467
2282.62 0.0134113
2283.74 0.009611
2284.87 0.00700657
2285.99 0.0115519
2287.11 0.0126063
2288.23 0.00872247
2289.35 0.0121536
2290.47 0.0132184
2291.59 0.0101374
2292.71 0.0064307
2293.83 0.010002
2294.94 0.0117068
2296.06 0.0111378
2297.17 0.0123663
2298.29 0.00812395
2299.4 0.00921545
2300.52 0.0127784
2301.63 0.0102344
2302.74 0.0109456
2303.85 0.0108144
2304.96 0.00887659
2306.07 0.0117983
2307.18 0.010867
2308.29 0.011571
2309.4 0.0131577
2310.51 0.00923245
2311.62 0.0100284
2312.72 0.0117948
2313.83 0.0108071
2314.93 0.00737277
2316.04 0.00828827
2317.14 0.0105835
2318.24 0.00597035
2319.34 0.00883079
2320.45 0.0100286
2321.55 0.00832964
2322.65 0.0109572
2323.75 0.0134794
2324.85 0.00973572
2325.94 0.0123679
2327.04 0.0102757
2328.14 0.00528842
2329.24 0.0119183
2330.33 0.0117618
2331.43 0.0103
2332.52 0.0105552
2333.61 0.0101181
2334.71 0.0120791
2335.8 0.0118126
2336.89 0.00924221
2337.98 0.00965045
2339.07 0.0111107
2340.16 0.0101168
2341.25 0.00845842
2342.34 0.0116073
2343.43 0.00764409
2344.52 0.00976447
2345.6 0.0100306
2346.69 0.0156334
2347.77 0.0118437
2348.86 0.0132004
2349.94 0.0129775
2351.03 0.00993482
2352.11 0.0129589
2353.19 0.00947673
2354.27 0.00645404
2355.35 0.008343
2356.43 0.0124881
2357.51 0.00815522
2358.59 0.013118
2359.67 0.0106711
2360.74 0.00846915
2361.82 0.0109387
2362.9 0.0133177
2363.97 0.00896417
2365.05 0.0095187
2366.12 0.0116312
2367.2 0.0100331
2368.27 0.0100198
2369.34 0.00875726
2370.41 0.00571759
2371.48 0.00780914
2372.55 0.0133339
2373.62 0.00724776
2374.69 0.0107055
2375.76 0.0125538
2376.83 0.0102918
2377.9 0.0124887
2378.96 0.0100182
2380.03 0.0124645
2381.09 0.00775755
2382.16 0.0102283
2383.22 0.0106189
2384.28 0.010558
2385.35 0.0140766
2386.41 0.00778618
2387.47 0.0121391
2388.53 0.00984725
2389.59 0.010115
2390.65 0.00897409
2391.71 0.0102279
2392.77 0.00785872
2393.82 0.00831871
2394.88 0.0108526
2395.94 0.00692036
2396.99 0.00775426
2398.05 0.00739019
2399.1 0.00864518
2400.15 0.00984987
2401.21 0.00908342
2402.26 0.0053554
2403.31 0.00745289
2404.36 0.00893613
2405.41 0.00919304
2406.46 0.0109163
2407.51 0.011038
2408.56 0.00791387
2409.61 0.0119787
2410.65 0.0115039
2411.7 0.00880435
2412.75 0.0103113
2413.79 0.0110077
2414.84 0.0115055
2415.88 0.0115033
2416.92 0.010034
2417.97 0.0106483
2419.01 0.00990155
2420.05 0.0120776
2421.09 0.00965502
2422.13 0.0127374
2423.17 0.0125727
2424.21 0.0106815
2425.25 0.010744
2426.29 0.0087103
2427.32 0.0106066
2428.36 0.0105695
2429.39 0.00545897
2430.43 0.0117516
2431.46 0.0111607
2432.5 0.00849321
2433.53 0.00544225
2434.56 0.00967297
2435.59 0.00974806
2436.63 0.0110581
2437.66 0.00506218
2438.69 0.00711527
2439.72 0.00719473
2440.74 0.0102416
2441.77 0.00529408
2442.8 0.00886087
2443.83 0.00902197
2444.85 0.0121947
2445.88 0.00760242
2446.9 0.00932636
2447.93 0.00612248
2448.95 0.0121714
2449.97 0.0124242
2451 0.00939155
2452.02 0.00684866
2453.04 0.0103313
2454.06 0.0115355
2455.08 0.0133496
2456.1 0.012999
2457.12 0.011035
2458.14 0.00961089
2459.15 0.0114507
2460.17 0.0120622
2461.19 0.00612451
2462.2 0.0127086
2463.22 0.00897371
2464.23 0.00630455
2465.24 0.0172602
2466.26 0.00936096
2467.27 0.00726164
2468.28 0.0148884
2469.29 0.00781411
2470.3 0.0089297
2471.31 0.00765655
2472.32 0.0110512
2473.33 0.0101814
2474.34 0.0125598
2475.35 0.0110839
2476.35 0.00731395
2477.36 0.00649458
2478.36 0.0108494
2479.37 0.00949832
2480.37 0.00839891
2481.38 0.00588289
2482.38 0.00861106
2483.38 0.00833784
2484.38 0.00944366
2485.38 0.00970067
2486.38 0.0104376
2487.38 0.00864513
2488.38 0.00498587
2489.38 0.00968224
2490.38 0.0116121
2491.38 0.0075096
2492.37 0.00947674
2493.37 0.0101481
2494.36 0.00918239
2495.36 0.0111315
2496.35 0.0117118
2497.35 0.0112927
2498.34 0.00931186
2499.33 0.00923144
2500.32 0.00677602
2501.32 0.0129321
2502.31 0.0103345
2503.3 0.00445891
2504.28 0.0116989
2505.27 0.011174
2506.26 0.00659341
2507.25 0.0152127
2508.24 0.00917808
2509.22 0.00909822
2510.21 0.00919347
2511.19 0.00941059
2512.18 0.0114028
2513.16 0.0127713
2514.14 0.00470801
2515.13 0.0064913
2516.11 0.00801135
2517.09 0.0086324
2518.07 0.0112333
2519.05 0.00943002
2520.03 0.0130569
2521.01 0.00957415
2521.98 0.0106761
2522.96 0.00988849
2523.94 0.00671181
2524.91 0.00703458
2525.89 0.0120424
2526.86 0.00883401
2527.84 0.0105265
2528.81 0.00825033
2529.79 0.0113841
2530.76 0.0145302
2531.73 0.0099963
2532.7 0.012043
2533.67 0.00906505
2534.64 0.00970588
2535.61 0.00708494
2536.58 0.0138635
2537.55 0.00774663
2538.52 0.00905789
2539.48 0.0106835
2540.45 0.010911
2541.41 0.00737022
2542.38 0.00585733
2543.34 0.00724448
2544.31 0.00351537
2545.27 0.00980372
2546.23 0.00902314
2547.2 0.00487651
2548.16 0.0120194
2549.12 0.0115299
2550.08 0.00451059
2551.04 0.0208839
2552 0.0133525
2552.95 0.00977563
2553.91 0.00807274
2554.87 0.0118166
2555.83 0.0128172
2556.78 0.0100704
2557.74 0.00441843
2558.69 0.00859488
2559.65 0.0101276
2560.6 0.011342
2561.55 0.0056166
2562.5 0.0135468
2563.45 0.00635366
2564.41 0.0088356
2565.36 0.00667663
2566.31 0.0108727
2567.25 0.00779264
2568.2 0.00828618
2569.15 0.0128307
2570.1 0.0117887
2571.05 0.0118893
2571.99 0.00880525
2572.94 0.00536079
2573.88 0.0127267
2574.83 0.0118704
2575.77 0.00996688
2576.71 0.00942309
2577.65 0.0110674
2578.6 0.00738678
2579.54 0.0108672
2580.48 0.00880235
2581.42 0.00777535
2582.36 0.00516111
2583.3 0.00493734
2584.23 0.0086211
2585.17 0.00864945
2586.11 0.00692175
2587.04 -0.000574916
2587.98 0.00722131
2588.91 0.00777716
2589.85 0.0105281
2590.78 0.0126626
2591.71 0.00958428
2592.65 0.00329017
2593.58 0.0114865
2594.51 0.0135213
2595.44 0.00744747
2596.37 0.00910892
2597.3 0.0102828
2598.23 0.00119728
2599.16 0.00726826
2600.09 0.0093586
2601.01 0.0073121
2601.94 0.0145703
2602.87 0.0119074
2603.79 0.0108128
2604.71 0.00868447
2605.64 0.0132849
2606.56 0.00517593
2607.48 0.00762813
2608.41 0.0059161
2609.33 0.00959047
2610.25 0.0102292
2611.17 0.00858434
2612.09 0.00777194
2613.01 0.00931897
2613.93 0.00857908
2614.85 0.0117217
2615.76 0.00910146
2616.68 0.0112097
2617.6 0.00881406
2618.51 0.00430787
2619.43 0.0061278
2620.34 0.00583223
2621.25 0.010264
2622.17 0.00659532
2623.08 0.0117586
2623.99 0.0154305
2624.9 0.0103113
2625.81 0.00771084
2626.72 0.00804875
2627.63 0.0103643
2628.54 0.0101257
2629.45 0.00616745
2630.36 0.00956036
2631.26 0.00691676
2632.17 0.00476646
2633.07 0.0104075
2633.98 0.00536219
2634.88 0.00873111
2635.79 0.00991048
2636.69 0.00307649
2637.59 0.0136558
2638.5 0.0138506
2639.4 0.00679811
2640.3 0.0103741
2641.2 0.0114212
2642.1 0.0016819
2643 0.0117731
2643.9 0.0124415
2644.79 0.0103876
2645.69 0.0133687
2646.59 0.0112357
2647.48 0.00982528
2648.38 0.0102126
2649.27 0.00735623
2650.17 0.00790136
2651.06 0.00686553
2651.95 0.0109457
2652.85 0.0068924
2653.74 0.0078257
2654.63 0.00732045
2655.52 0.00615046
2656.41 0.00816072
2657.3 0.0090222
2658.19 0.00863313
2659.08 0.00659871
2659.96 0.0136653
2660.85 0.0149552
2661.74 0.0112054
2662.62 0.0122298
2663.51 0.0113917
2664.39 0.00704448
2665.28 0.00938704
2666.16 0.0048905
2667.04 0.000977139
2667.92 0.0119553
2668.81 0.00602124
2669.69 0.00818899
2670.57 0.00592513
2671.45 0.00777288
2672.33 0.00621621
2673.2 0.0103077
2674.08 0.0117358
2674.96 0.0224372
2675.84 0.0110548
2676.71 0.00476768
2677.59 0.015691
2678.46 0.00924025
2679.34 0.00696111
2680.21 0.0143134
2681.08 0.00572778
2681.95 0.0113655
2682.83 0.0100131
2683.7 0.0141389
2684.57 0.00415008
2685.44 0.0103145
2686.31 0.0113751
2687.18 0.0108575
2688.04 0.0090648
2688.91 0.00346245
2689.78 0.0137117
2690.64 0.00106632
2691.51 0.00533707
2692.37 0.00704585
2693.24 0.00770561
2694.1 0.00480332
2694.97 0.00527142
2695.83 0.00770735
2696.69 0.00858807
2697.55 0.00736786
2698.41 0.0126722
2699.27 0.0105319
2700.13 0.0104886
2700.99 0.0140331
2701.85 0.0092889
2702.71 0.00190892
2703.57 0.00855772
2704.42 0.0090583
2705.28 0.0185978
2706.13 0.0125651
2706.99 0.00895302
2707.84 0.00915767
2708.7 0.00226234
2709.55 0.0116679
2710.4 0.0058324
2711.25 0.0104755
2712.1 0.00895063
2712.96 0.0164633
2713.8 0.0091288
2714.65 0.0112402
2715.5 0.00390325
2716.35 0.0135913
2717.2 0.00677502
2718.05 0.00280908
2718.89 0.0132898
2719.74 0.0066257
2720.58 0.0122602
2721.43 0.00992579
2722.27 0.00851776
2723.11 0.00718312
2723.96 0.0147264
2724.8 0.0179621
2725.64 0.013892
2726.48 0.00655878
2727.32 0.0159813
2728.16 0.00440798
2729 0.0129227
2729.84 0.015048
2730.68 0.0106216
2731.51 0.00819626
2732.35 0.0083444
2733.19 0.00667154
2734.02 0.00842461
2734.86 0.00836182
2735.69 0.0110375
2736.52 0.000171194
2737.36 -0.00293867
2738.19 0.00427099
2739.02 0.0131921
2739.85 0.0103827
2740.68 0.0130502
2741.51 0.00310929
2742.34 0.0104208
2743.17 0.00973285
2744 0.0197871
2744.83 0.0140392
2745.65 0.00403637
2746.48 0.0138714
2747.31 0.00754807
2748.13 0.0129622
2748.96 0.00940749
2749.78 0.00581699
2750.6 0.0122245
2751.43 0.0107783
2752.25 0.0164868
2753.07 0.00214636
2753.89 0.0103457
2754.71 0.00466044
2755.53 0.0154864
2756.35 0.0139735
2757.17 0.00452189
2757.98 0.00288779
2758.8 0.0210042
2759.62 0.0139463
2760.43 0.00868517
2761.25 0.00474327
2762.06 0.0107129
2762.88 0.0120981
2763.69 0.00777962
2764.51 0.0102858
2765.32 0.0132613
2766.13 0.00241937
2766.94 0.0176215
2767.75 0.0110442
2768.56 0.0151889
2769.37 0.00755918
2770.18 0.00567681
2770.99 0.0110164
2771.79 0.0112413
2772.6 0.00632735
2773.41 0.0115177
2774.21 0.0094524
2775.02 0.00873842
2775.82 0.00291058
2776.63 0.00802111
2777.43 0.014914
2778.23 0.00847534
2779.03 0.00554308
2779.84 0.0120651
2780.64 0.00901375
2781.44 0.013695
2782.24 -0.00121028
2783.04 0.0188641
2783.83 0.0199987
2784.63 0.00948684
2785.43 0.018825
2786.23 0.00520637
2787.02 0.00608051
2787.82 0.00125377
2788.61 0.0131437
2789.41 0.00615472
2790.2 0.0124456
2790.99 0.00214304
2791.78 0.00305031
2792.58 0.0111115
2793.37 0.0144049
2794.16 0.0177283
2794.95 0.0132252
2795.74 0.00643301
2796.52 0.00800493
2797.31 0.00178093
2798.1 0.00755445
2798.89 0.0117437
2799.67 0.0047255
2800.46 0.0170389
2801.24 0.00546944
2802.03 0.00970506
2802.81 0.00137267
2803.59 0.0114365
2804.38 0.00849807
2805.16 0.00532716
2805.94 -0.000229927
2806.72 0.0147438
2807.5 -0.00208924
2808.28 0.00350018
2809.06 0.00722013
2809.84 0.00395513
2810.62 0.00493084
2811.39 0.00638586
2812.17 0.00424657
2812.94 0.00736535
2813.72 0.0242926
2814.49 0.021505
2815.27 0.00717187
2816.04 0.00431541
2816.81 0.000479138
2817.59 0.00581255
2818.36 0.0024292
2819.13 0.00949064
2819.9 0.0104479
2820.67 0.00684478
2821.44 0.0137794
2822.21 0.00662809
2822.97 0.00147455
2823.74 0.000248173
2824.51 0.0113799
2825.27 -0.00124229
2826.04 0.015185
2826.8 0.00672614
2827.57 0.0173834
2828.33 0.0124945
2829.09 0.0124013
2829.86 0.00321832
2830.62 0.00123878
2831.38 0.0229046
2832.14 -0.00497524
2832.9 0.0117539
2833.66 0.0160582
2834.42 0.00846274
2835.18 0.0152847
2835.93 0.00549206
2836.69 0.0114902
2837.45 0.0147818
2838.2 0.0178693
2838.96 0.0107516
2839.71 0.00925463
2840.46 0.00985613
2841.22 0.0208452
2841.97 -0.00681667
2842.72 0.00350359
2843.47 0.0206143
2844.22 0.0115753
2844.97 0.000251443
2845.72 0.00677381
2846.47 0.0157234
2847.22 0.0195397
2847.97 0.0134145
2848.72 -0.00226272
2849.46 -0.000504942
2850.21 0.00930438
2850.95 0.00584697
2851.7 0.0169755
2852.44 -0.000761369
2853.18 0.0277227
2853.93 0.00254356
2854.67 0.0149411
2855.41 0.0155736
2856.15 0.0241637
2856.89 0.0045711
2857.63 0.00305059
2858.37 0.00968842
2859.11 0.00888819
2859.85 0.0208962
2860.58 -0.000256023
2861.32 -0.00333662
2862.05 -0.00827436
2862.79 -0.000777992
2863.52 0.00829052
2864.26 0.023687
2864.99 0.0128801
2865.72 0.018892
2866.46 0.00950081
2867.19 0.0125697
2867.92 0.0118613
2868.65 0.014065
2869.38 0.00983112
2870.11 0.00638293
2870.84 0.00540687
2871.56 -0.000539447
2872.29 0.00270873
2873.02 0.0212981
2873.74 0.00784059
2874.47 0.00791532
2875.19 0.0204932
2875.92 0.00957024
2876.64 0.0216033
2877.36 0.0180788
2878.09 0.0207139
2878.81 0.0127917
2879.53 0.0170155
2880.25 0.0142513
2880.97 0.00704783
2881.69 0.014937
2882.41 0.0135772
2883.12 0.0090731
2883.84 0.0278134
2884.56 0.0189082
2885.27 0.000574313
2885.99 0.0176124
2886.7 0.0165219
2887.42 0.0137745
2888.13 0.012561
2888.84 0.019091
2889.56 0.011536
2890.27 0.00326123
2890.98 0.0173637
2891.69 0.00420172
2892.4 0.00601021
2893.11 0.00818618
2893.82 0.0100381
2894.52 0.000308403
2895.23 0.00276903
2895.94 0.0130533
2896.64 0.00531458
2897.35 0.00437456
2898.05 0.0160617
2898.76 0.0208647
2899.46 0.0137589
2900.16 0.0118287
2900.87 0.0257426
2901.57 0.015156
2902.27 0.0190431
2902.97 0.00843348
2903.67 0.0197149
2904.37 0.0196894
2905.06 0.00498111
spectrumdark 2048
-91.4342 3459
-88.8362 3468
-86.2398 3460
-83.6453 3477
-81.0523 3431
-78.4612 3439
-75.8717 3413
-73.2838 3449
-70.6978 3415
-68.1134 3434
-65.5307 3408
-62.9497 3459
-60.3705 3423
-57.7928 3440
-55.2169 3420
-52.6427 3433
-50.0702 3407
-47.4995 3430
-44.9303 3465
-42.3629 3446
-39.7971 3427
-37.233 3431
-34.6707 3441
-32.1099 3471
-29.5509 3426
-26.9935 3428
-24.438 3439
-21.884 3424
-19.3316 3455
-16.781 3424
-14.232 3457
-11.6848 3446
-9.13913 3453
-6.59528 3440
-4.053 3442
-1.51234 3459
1.02649 3433
3.56384 3447
6.09934 3417
8.63328 3433
11.1655 3466
13.6961 3456
16.2251 3451
18.7523 3443
21.2779 3416
23.8019 3418
26.3242 3448
28.8449 3419
31.3639 3415
33.8812 3476
36.3969 3457
38.911 3428
41.4233 3462
43.9341 3400
46.4432 3438
48.9507 3451
51.4565 3444
53.9606 3437
56.4632 3433
58.9641 3436
61.4633 3444
63.9609 3448
66.4569 3403
68.9513 3443
71.444 3449
73.935 3485
76.4244 3429
78.9123 3452
81.3984 3426
83.883 3455
86.3659 3472
88.8472 3420
91.3269 3454
93.8049 3457
96.2814 3434
98.7561 3473
101.23 3489
103.701 3450
106.171 3427
108.64 3441
111.106 3399
113.571 3427
116.035 3462
118.497 3448
120.957 3447
123.416 3412
125.873 3450
128.328 3430
130.782 3481
133.234 3475
135.685 3501
138.134 3494
140.581 3537
143.027 3527
145.471 3559
147.914 3563
150.355 3605
152.794 3543
155.232 3588
157.669 3587
160.103 3596
162.536 3587
164.968 3567
167.398 3589
169.826 3600
172.253 3574
174.678 3582
177.101 3552
179.523 3580
181.944 3605
184.362 3682
186.78 3608
189.195 3637
191.609 3693
194.022 3635
196.433 3658
198.842 3709
201.25 3738
203.656 3715
206.061 3684
208.464 3717
210.865 3676
213.265 3717
215.664 3699
218.06 3705
220.456 3739
222.849 3694
225.241 3724
227.632 3736
230.021 3712
232.408 3684
234.794 3716
237.178 3694
239.561 3674
241.942 3701
244.322 3666
246.7 3696
249.077 3732
251.452 3701
253.825 3695
256.197 3720
258.568 3706
260.937 3705
263.304 3715
265.67 3708
268.034 3726
270.396 3741
272.758 3687
275.117 3695
277.475 3662
279.832 3682
282.187 3687
284.54 3700
286.892 3684
289.243 3729
291.591 3710
293.939 3686
296.285 3721
298.629 3738
300.972 3751
303.313 3705
305.653 3704
307.991 3687
310.328 3754
312.663 3839
314.996 3687
317.328 3718
319.659 3696
321.988 3698
324.316 3728
326.642 3716
328.966 3717
331.29 3769
333.611 3773
335.931 3797
338.25 3749
340.567 3708
342.882 3683
345.196 3743
347.509 3699
349.82 3703
352.129 3721
354.437 3824
356.744 3699
359.049 3736
361.352 3715
363.654 3715
365.955 3689
368.254 3699
370.552 3686
372.848 3686
375.142 3683
377.435 3696
379.727 3690
382.017 3725
384.306 3726
386.593 3715
388.878 3714
391.163 3693
393.445 3726
395.727 3753
398.006 3775
400.285 3949
402.562 3944
404.837 3894
407.111 3866
409.383 3883
411.654 4356
413.924 4713
416.191 4685
418.458 4465
420.723 4076
422.987 3768
425.249 3692
427.509 3696
429.769 3656
432.026 3657
434.283 3682
436.537 3680
438.791 3674
441.043 3678
443.293 3623
445.542 3650
447.79 3665
450.036 3653
452.28 3649
454.523 3632
456.765 3614
459.005 3643
461.244 3616
463.482 3662
465.718 3616
467.952 3606
470.185 3631
472.417 3609
474.647 3649
476.876 3657
479.103 3621
481.329 3675
483.553 3619
485.776 3615
487.998 3620
490.218 3619
492.437 3635
494.654 3620
496.87 3655
499.084 3628
501.297 3652
503.508 3646
505.719 3697
507.927 3691
510.135 3620
512.34 3617
514.545 3634
516.748 3598
518.949 3603
521.15 3652
523.348 3670
525.546 3636
527.742 3749
529.936 3791
532.129 3821
534.321 3802
536.511 3668
538.7 3634
540.887 3675
543.073 3602
545.258 3653
547.441 3604
549.623 3672
551.803 3706
553.983 3702
556.16 3654
558.336 3686
560.511 3665
562.685 3629
564.857 3608
567.027 3634
569.196 3641
571.364 3664
573.531 3647
575.696 3673
577.859 3636
580.022 3655
582.183 3644
584.342 3623
586.5 3562
588.657 3580
590.812 3535
592.966 3590
595.119 3591
597.27 3593
599.42 3657
601.568 3631
603.715 3665
605.861 3647
608.005 3643
610.148 3631
612.29 3647
614.43 3660
616.569 3650
618.706 3695
620.842 3660
622.977 3647
625.11 3657
627.242 3641
629.373 3648
631.502 3593
633.63 3654
635.756 3818
637.881 3858
640.005 3830
642.127 3880
644.248 3757
646.368 3698
648.487 3633
650.604 3634
652.719 3629
654.833 3618
656.946 3673
659.058 3602
661.168 3653
663.277 3662
665.384 3713
667.491 3667
669.595 3678
671.699 3676
673.801 3633
675.902 3639
678.001 3675
680.099 3626
682.196 3677
684.292 3670
686.386 3766
688.478 3947
690.57 3962
692.66 3934
694.749 3817
696.836 3693
698.922 3582
701.007 3640
703.09 3625
705.172 3655
707.253 3696
709.333 3620
711.411 3653
713.487 3631
715.563 3624
717.637 3674
719.71 3658
721.781 3612
723.851 3616
725.92 3665
727.988 3657
730.054 3629
732.119 3633
734.182 3662
736.245 3639
738.306 3651
740.365 3627
742.424 3775
744.481 3625
746.536 3632
748.591 3602
750.644 3667
752.696 3654
754.746 3727
756.795 3646
758.843 3668
760.889 3635
762.935 3653
764.979 3667
767.021 3665
769.063 3617
771.103 3683
773.141 3675
775.179 3743
777.215 3682
779.25 3600
781.284 3656
783.316 3643
785.347 3604
787.377 3661
789.405 3634
791.432 3621
793.458 3660
795.482 3657
797.506 3651
799.528 3668
801.548 3594
803.568 3641
805.586 3699
807.603 3678
809.618 3681
811.633 3638
813.646 3647
815.657 3632
817.668 3637
819.677 3682
821.685 3633
823.692 3636
825.697 3633
827.701 3643
829.704 3630
831.706 3615
833.706 3656
835.705 3632
837.703 3708
839.699 3632
841.694 3691
843.688 3642
845.681 3749
847.672 3658
849.663 3668
851.652 3695
853.639 3681
855.626 3647
857.611 3621
859.595 3652
861.577 3607
863.559 3648
865.539 3638
867.518 3658
869.495 3652
871.472 3687
873.447 3672
875.421 3661
877.393 3678
879.365 3628
881.335 3670
883.304 3624
885.272 3658
887.238 3768
889.203 3662
891.167 3681
893.13 3668
895.091 3637
897.051 3641
899.01 3654
900.968 3630
902.925 3650
904.88 3639
906.834 3659
908.787 3616
910.738 3642
912.689 3697
914.638 3648
916.586 3598
918.532 3637
920.478 3693
922.422 3624
924.365 3648
926.307 3593
928.247 3602
930.187 3628
932.125 3673
934.062 3666
935.997 3634
937.932 3625
939.865 3641
941.797 3676
943.728 3630
945.657 3618
947.586 3664
949.513 3754
951.439 3622
953.363 3653
955.287 3645
957.209 3692
959.13 3637
961.05 3640
962.969 3666
964.886 3651
966.803 3669
968.718 3619
970.632 3661
972.544 3621
974.456 3590
976.366 3611
978.275 3619
980.183 3611
982.09 3667
983.995 3665
985.899 3698
987.802 3766
989.704 3743
991.605 3682
993.504 3674
995.403 3625
997.3 3618
999.196 3622
1001.09 3620
1002.98 3685
1004.87 3672
1006.76 3681
1008.65 3593
1010.54 3656
1012.43 3608
1014.32 3622
1016.2 3659
1018.09 3631
1019.97 3661
1021.85 3681
1023.73 3620
1025.61 3644
1027.49 3602
1029.37 3619
1031.24 3575
1033.12 3550
1034.99 3577
1036.86 3586
1038.73 3566
1040.6 3591
1042.47 3641
1044.34 3630
1046.21 3673
1048.07 3585
1049.94 3623
1051.8 3635
1053.66 3636
1055.52 3588
1057.38 3623
1059.24 3610
1061.1 3644
1062.95 3650
1064.81 3641
1066.66 3691
1068.51 3657
1070.37 3645
1072.22 3625
1074.07 3599
1075.91 3632
1077.76 3646
1079.61 3607
1081.45 3627
1083.29 3690
1085.14 3625
1086.98 3608
1088.82 3619
1090.66 3647
1092.49 3633
1094.33 3628
1096.16 3638
1098 3670
1099.83 3666
1101.66 3640
1103.49 3633
1105.32 3674
1107.15 3622
1108.98 3601
1110.81 3625
1112.63 3631
1114.45 3610
1116.28 3664
1118.1 3628
1119.92 3627
1121.74 3654
1123.56 3608
1125.37 3618
1127.19 3605
1129.01 3604
1130.82 3617
1132.63 3637
1134.44 3641
1136.25 3642
1138.06 3584
1139.87 3631
1141.68 3642
1143.48 3636
1145.29 3597
1147.09 3596
1148.89 3623
1150.7 3645
1152.5 3696
1154.3 3616
1156.09 3624
1157.89 3599
1159.69 3628
1161.48 3606
1163.27 3593
1165.07 3653
1166.86 3610
1168.65 3597
1170.44 3613
1172.23 3623
1174.01 3607
1175.8 3600
1177.58 3560
1179.37 3612
1181.15 3672
1182.93 3646
1184.71 3585
1186.49 3600
1188.27 3608
1190.05 3592
1191.82 3618
1193.6 3571
1195.37 3589
1197.14 3580
1198.91 3601
1200.68 3605
1202.45 3587
1204.22 3623
1205.99 3625
1207.76 3638
1209.52 3588
1211.28 3615
1213.05 3723
1214.81 3619
1216.57 3602
1218.33 3624
1220.09 3619
1221.85 3564
1223.6 3650
1225.36 3625
1227.11 3616
1228.86 3591
1230.62 3609
1232.37 3614
1234.12 3619
1235.86 3601
1237.61 3583
1239.36 3624
1241.1 3613
1242.85 3584
1244.59 3679
1246.33 3596
1248.08 3649
1249.82 3620
1251.56 3612
1253.29 3611
1255.03 3605
1256.77 3607
1258.5 3614
1260.23 3585
1261.97 3635
1263.7 3595
1265.43 3655
1267.16 3617
1268.89 3580
1270.61 3607
1272.34 3634
1274.07 3607
1275.79 3591
1277.51 3581
1279.23 3556
1280.96 3626
1282.68 3571
1284.39 3611
1286.11 3620
1287.83 3586
1289.54 3613
1291.26 3611
1292.97 3616
1294.69 3597
1296.4 3602
1298.11 3607
1299.82 3546
1301.52 3590
1303.23 3616
1304.94 3601
1306.64 3619
1308.35 3589
1310.05 3618
1311.75 3613
1313.45 3638
1315.15 3602
1316.85 3586
1318.55 3593
1320.25 3575
1321.94 3608
1323.64 3625
1325.33 3620
1327.02 3611
1328.72 3591
1330.41 3600
1332.1 3622
1333.79 3588
1335.47 3598
1337.16 3575
1338.84 3616
1340.53 3605
1342.21 3657
1343.89 3812
1345.58 3875
1347.26 3944
1348.94 3903
1350.61 3830
1352.29 3692
1353.97 3622
1355.64 3638
1357.32 3620
1358.99 3610
1360.66 3637
1362.33 3633
1364 3600
1365.67 3602
1367.34 3589
1369.01 3603
1370.67 3635
1372.34 3613
1374 3565
1375.67 3583
1377.33 3579
1378.99 3594
1380.65 3591
1382.31 3600
1383.96 3575
1385.62 3563
1387.28 3621
1388.93 3587
1390.59 3562
1392.24 3607
1393.89 3587
1395.54 3610
1397.19 3631
1398.84 3585
1400.49 3570
1402.14 3592
1403.78 3586
1405.43 3556
1407.07 3584
1408.71 3625
1410.35 3565
1412 3613
1413.64 3608
1415.27 3580
1416.91 3638
1418.55 3547
1420.18 3564
1421.82 3605
1423.45 3593
1425.09 3569
1426.72 3612
1428.35 3592
1429.98 3586
1431.61 3564
1433.24 3595
1434.86 3613
1436.49 3588
1438.11 3600
1439.74 3580
1441.36 3616
1442.98 3570
1444.6 3560
1446.22 3614
1447.84 3572
1449.46 3577
1451.08 3581
1452.69 3561
1454.31 3581
1455.92 3569
1457.54 3551
1459.15 3538
1460.76 3567
1462.37 3618
1463.98 3567
1465.59 3594
1467.2 3548
1468.8 3559
1470.41 3582
1472.01 3558
1473.62 3552
1475.22 3589
1476.82 3548
1478.42 3558
1480.02 3593
1481.62 3582
1483.22 3582
1484.81 3601
1486.41 3602
1488 3576
1489.6 3592
1491.19 3625
1492.78 3567
1494.37 3541
1495.96 3592
1497.55 3548
1499.14 3583
1500.73 3587
1502.31 3588
1503.9 3678
1505.48 3533
1507.06 3546
1508.65 3595
1510.23 3565
1511.81 3550
1513.39 3571
1514.97 3590
1516.54 3568
1518.12 3591
1519.7 3581
1521.27 3552
1522.84 3553
1524.42 3580
1525.99 3576
1527.56 3579
1529.13 3522
1530.7 3579
1532.27 3624
1533.83 3573
1535.4 3575
1536.97 3678
1538.53 3722
1540.09 3808
1541.66 3820
1543.22 3762
1544.78 3697
1546.34 3644
1547.9 3593
1549.45 3592
1551.01 3544
1552.57 3540
1554.12 3528
1555.67 3566
1557.23 3517
1558.78 3529
1560.33 3560
1561.88 3580
1563.43 3541
1564.98 3538
1566.53 3559
1568.07 3545
1569.62 3533
1571.16 3527
1572.71 3498
1574.25 3540
1575.79 3527
1577.33 3530
1578.87 3542
1580.41 3577
1581.95 3530
1583.49 3543
1585.02 3509
1586.56 3529
1588.09 3551
1589.63 3537
1591.16 3495
1592.69 3535
1594.22 3515
1595.75 3488
1597.28 3472
1598.81 3507
1600.34 3506
1601.86 3499
1603.39 3529
1604.91 3525
1606.43 3540
1607.96 3490
1609.48 3516
1611 3544
1612.52 3524
1614.04 3485
1615.56 3520
1617.07 3516
1618.59 3498
1620.1 3488
1621.62 3491
1623.13 3541
1624.65 3509
1626.16 3538
1627.67 3540
1629.18 3574
1630.69 3507
1632.19 3511
1633.7 3512
1635.21 3513
1636.71 3530
1638.22 3520
1639.72 3610
1641.22 3513
1642.73 3531
1644.23 3520
1645.73 3537
1647.23 3557
1648.72 3490
1650.22 3515
1651.72 3526
1653.21 3532
1654.71 3539
1656.2 3558
1657.69 3518
1659.19 3514
1660.68 3545
1662.17 3483
1663.66 3554
1665.15 3537
1666.63 3521
1668.12 3559
1669.6 3528
1671.09 3501
1672.57 3544
1674.06 3508
1675.54 3559
1677.02 3540
1678.5 3583
1679.98 3552
1681.46 3526
1682.94 3548
1684.41 3525
1685.89 3522
1687.36 3525
1688.84 3549
1690.31 3556
1691.78 3582
1693.26 3561
1694.73 3476
1696.2 3510
1697.67 3558
1699.13 3521
1700.6 3534
1702.07 3517
1703.53 3488
1705 3517
1706.46 3459
1707.92 3501
1709.39 3543
1710.85 3509
1712.31 3526
1713.77 3519
1715.23 3530
1716.68 3468
1718.14 3503
1719.6 3488
1721.05 3487
1722.51 3533
1723.96 3537
1725.41 3504
1726.86 3517
1728.31 3491
1729.76 3475
1731.21 3515
1732.66 3473
1734.11 3523
1735.56 3496
1737 3479
1738.45 3562
1739.89 3498
1741.33 3506
1742.77 3513
1744.22 3515
1745.66 3513
1747.1 3544
1748.53 3537
1749.97 3428
1751.41 3492
1752.85 3535
1754.28 3485
1755.72 3482
1757.15 3532
1758.58 3520
1760.01 3479
1761.45 3534
1762.88 3505
1764.31 3534
1765.73 3501
1767.16 3538
1768.59 3533
1770.01 3542
1771.44 3500
1772.86 3490
1774.29 3486
1775.71 3488
1777.13 3542
1778.55 3517
1779.97 3537
1781.39 3541
1782.81 3513
1784.23 3512
1785.65 3507
1787.06 3487
1788.48 3535
1789.89 3500
1791.3 3497
1792.72 3471
1794.13 3462
1795.54 3484
1796.95 3545
1798.36 3503
1799.77 3488
1801.18 3520
1802.58 3505
1803.99 3519
1805.39 3532
1806.8 3533
1808.2 3561
1809.6 3524
1811.01 3535
1812.41 3509
1813.81 3487
1815.21 3476
1816.6 3478
1818 3510
1819.4 3486
1820.79 3527
1822.19 3517
1823.58 3481
1824.98 3497
1826.37 3490
1827.76 3512
1829.15 3523
1830.54 3552
1831.93 3503
1833.32 3492
1834.71 3478
1836.1 3495
1837.48 3501
1838.87 3511
1840.25 3485
1841.64 3462
1843.02 3470
1844.4 3495
1845.78 3495
1847.16 3495
1848.54 3484
1849.92 3513
1851.3 3515
1852.68 3516
1854.05 3499
1855.43 3516
1856.8 3455
1858.18 3520
1859.55 3517
1860.92 3507
1862.29 3514
1863.66 3504
1865.03 3505
1866.4 3515
1867.77 3514
1869.14 3501
1870.51 3520
1871.87 3535
1873.24 3550
1874.6 3545
1875.97 3495
1877.33 3542
1878.69 3570
1880.05 3488
1881.41 3499
1882.77 3552
1884.13 3509
1885.49 3490
1886.84 3502
1888.2 3520
1889.56 3496
1890.91 3507
1892.26 3510
1893.62 3569
1894.97 3530
1896.32 3534
1897.67 3515
1899.02 3541
1900.37 3495
1901.72 3493
1903.07 3526
1904.41 3527
1905.76 3512
1907.1 3502
1908.45 3498
1909.79 3485
1911.14 3502
1912.48 3490
1913.82 3525
1915.16 3481
1916.5 3508
1917.84 3488
1919.18 3489
1920.51 3496
1921.85 3474
1923.19 3525
1924.52 3509
1925.85 3514
1927.19 3560
1928.52 3461
1929.85 3470
1931.18 3523
1932.51 3522
1933.84 3517
1935.17 3520
1936.5 3510
1937.83 3504
1939.15 3514
1940.48 3494
1941.8 3488
1943.13 3529
1944.45 3514
1945.77 3504
1947.09 3500
1948.41 3521
1949.73 3482
1951.05 3542
1952.37 3546
1953.69 3524
1955.01 3574
1956.32 3529
1957.64 3489
1958.95 3530
1960.27 3513
1961.58 3492
1962.89 3502
1964.2 3510
1965.52 3464
1966.83 3487
1968.14 3492
1969.44 3516
1970.75 3513
1972.06 3464
1973.36 3484
1974.67 3493
1975.97 3497
1977.28 3488
1978.58 3517
1979.88 3469
1981.19 3523
1982.49 3479
1983.79 3473
1985.09 3487
1986.38 3479
1987.68 3479
1988.98 3502
1990.28 3454
1991.57 3459
1992.87 3507
1994.16 3496
1995.45 3473
1996.75 3441
1998.04 3478
1999.33 3462
2000.62 3461
2001.91 3488
2003.2 3483
2004.49 3469
2005.77 3470
2007.06 3420
2008.34 3474
2009.63 3480
2010.91 3467
2012.2 3493
2013.48 3445
2014.76 3488
2016.04 3502
2017.32 3488
2018.6 3467
2019.88 3523
2021.16 3448
2022.44 3513
2023.71 3490
2024.99 3471
2026.27 3439
2027.54 3469
2028.81 3512
2030.09 3485
2031.36 3471
2032.63 3479
2033.9 3491
2035.17 3460
2036.44 3502
2037.71 3471
2038.98 3478
2040.24 3454
2041.51 3461
2042.77 3501
2044.04 3483
2045.3 3492
2046.57 3489
2047.83 3499
2049.09 3454
2050.35 3430
2051.61 3482
2052.87 3464
2054.13 3463
2055.39 3502
2056.65 3509
2057.9 3444
2059.16 3473
2060.41 3479
2061.67 3461
2062.92 3490
2064.18 3516
2065.43 3454
2066.68 3464
2067.93 3508
2069.18 3433
2070.43 3468
2071.68 3480
2072.93 3444
2074.17 3477
2075.42 3451
2076.66 3450
2077.91 3478
2079.15 3468
2080.4 3422
2081.64 3450
2082.88 3444
2084.12 3472
2085.36 3497
2086.6 3468
2087.84 3473
2089.08 3481
2090.32 3449
2091.55 3478
2092.79 3492
2094.03 3507
2095.26 3464
2096.5 3520
2097.73 3465
2098.96 3482
2100.19 3483
2101.42 3421
2102.65 3484
2103.88 3471
2105.11 3486
2106.34 3459
2107.57 3471
2108.8 3470
2110.02 3483
2111.25 3461
2112.47 3486
2113.7 3467
2114.92 3505
2116.14 3547
2117.36 3471
2118.58 3494
2119.8 3464
2121.02 3458
2122.24 3506
2123.46 3474
2124.68 3497
2125.89 3444
2127.11 3496
2128.33 3476
2129.54 3516
2130.75 3479
2131.97 3441
2133.18 3498
2134.39 3470
2135.6 3453
2136.81 3499
2138.02 3451
2139.23 3501
2140.44 3524
2141.65 3458
2142.85 3467
2144.06 3507
2145.27 3487
2146.47 3468
2147.67 3490
2148.88 3483
2150.08 3454
2151.28 3450
2152.48 3489
2153.68 3486
2154.88 3463
2156.08 3501
2157.28 3480
2158.48 3463
2159.67 3521
2160.87 3483
2162.07 3494
2163.26 3477
2164.45 3491
2165.65 3471
2166.84 3474
2168.03 3468
2169.22 3490
2170.41 3488
2171.6 3440
2172.79 3489
2173.98 3553
2175.17 3449
2176.36 3477
2177.54 3449
2178.73 3448
2179.91 3471
2181.1 3487
2182.28 3459
2183.46 3531
2184.65 3508
2185.83 3494
2187.01 3467
2188.19 3439
2189.37 3447
2190.55 3498
2191.72 3489
2192.9 3494
2194.08 3499
2195.25 3464
2196.43 3442
2197.6 3503
2198.78 3512
2199.95 3480
2201.12 3517
2202.3 3449
2203.47 3475
2204.64 3504
2205.81 3502
2206.98 3460
2208.14 3498
2209.31 3483
2210.48 3457
2211.64 3473
2212.81 3486
2213.97 3481
2215.14 3507
2216.3 3427
2217.47 3456
2218.63 3460
2219.79 3475
2220.95 3495
2222.11 3464
2223.27 3482
2224.43 3469
2225.59 3512
2226.74 3511
2227.9 3477
2229.06 3482
2230.21 3488
2231.37 3480
2232.52 3499
2233.67 3482
2234.83 3496
2235.98 3477
2237.13 3454
2238.28 3423
2239.43 3480
2240.58 3465
2241.73 3471
2242.87 3521
2244.02 3450
2245.17 3478
2246.31 3483
2247.46 3476
2248.6 3479
2249.75 3474
2250.89 3498
2252.03 3519
2253.17 3493
2254.31 3480
2255.45 3456
2256.59 3448
2257.73 3500
2258.87 3474
2260.01 3486
2261.15 3461
2262.28 3498
2263.42 3472
2264.55 3482
2265.69 3482
2266.82 3495
2267.95 3480
2269.09 3421
2270.22 3524
2271.35 3465
2272.48 3475
2273.61 3456
2274.74 3466
2275.87 3465
2276.99 3491
2278.12 3458
2279.25 3461
2280.37 3524
2281.5 3483
2282.62 3455
2283.74 3470
2284.87 3475
2285.99 3457
2287.11 3462
2288.23 3483
2289.35 3478
2290.47 3458
2291.59 3483
2292.71 3506
2293.83 3498
2294.94 3502
2296.06 3504
2297.17 3491
2298.29 3496
2299.4 3501
2300.52 3486
2301.63 3474
2302.74 3483
2303.85 3473
2304.96 3499
2306.07 3477
2307.18 3490
2308.29 3451
2309.4 3470
2310.51 3531
2311.62 3459
2312.72 3477
2313.83 3456
2314.93 3497
2316.04 3454
2317.14 3464
2318.24 3487
2319.34 3489
2320.45 3504
2321.55 3497
2322.65 3469
2323.75 3470
2324.85 3480
2325.94 3477
2327.04 3503
2328.14 3484
2329.24 3445
2330.33 3474
2331.43 3463
2332.52 3484
2333.61 3465
2334.71 3459
2335.8 3485
2336.89 3483
2337.98 3478
2339.07 3464
2340.16 3488
2341.25 3484
2342.34 3459
2343.43 3512
2344.52 3450
2345.6 3496
2346.69 3449
2347.77 3500
2348.86 3445
2349.94 3472
2351.03 3480
2352.11 3463
2353.19 3505
2354.27 3495
2355.35 3481
2356.43 3448
2357.51 3507
2358.59 3454
2359.67 3490
2360.74 3496
2361.82 3485
2362.9 3483
2363.97 3473
2365.05 3493
2366.12 3497
2367.2 3467
2368.27 3499
2369.34 3492
2370.41 3503
2371.48 3479
2372.55 3478
2373.62 3486
2374.69 3481
2375.76 3475
2376.83 3492
2377.9 3497
2378.96 3528
2380.03 3447
2381.09 3506
2382.16 3473
2383.22 3499
2384.28 3481
2385.35 3463
2386.41 3505
2387.47 3467
2388.53 3464
2389.59 3478
2390.65 3504
2391.71 3455
2392.77 3499
2393.82 3493
2394.88 3514
2395.94 3525
2396.99 3490
2398.05 3535
2399.1 3471
2400.15 3514
2401.21 3512
2402.26 3490
2403.31 3516
2404.36 3511
2405.41 3476
2406.46 3525
2407.51 3489
2408.56 3497
2409.61 3482
2410.65 3500
2411.7 3480
2412.75 3479
2413.79 3499
2414.84 3478
2415.88 3501
2416.92 3533
2417.97 3507
2419.01 3456
2420.05 3456
2421.09 3487
2422.13 3479
2423.17 3448
2424.21 3502
2425.25 3500
2426.29 3496
2427.32 3628
2428.36 3512
2429.39 3530
2430.43 3469
2431.46 3478
2432.5 3529
2433.53 3488
2434.56 3505
2435.59 3483
2436.63 3490
2437.66 3535
2438.69 3526
2439.72 3511
2440.74 3463
2441.77 3517
2442.8 3480
2443.83 3518
2444.85 3499
2445.88 3514
2446.9 3519
2447.93 3526
2448.95 3472
2449.97 3467
2451 3520
2452.02 3502
2453.04 3497
2454.06 3482
2455.08 3466
2456.1 3476
2457.12 3522
2458.14 3475
2459.15 3454
2460.17 3493
2461.19 3490
2462.2 3482
2463.22 3496
2464.23 3478
2465.24 3455
2466.26 3513
2467.27 3497
2468.28 3473
2469.29 3477
2470.3 3484
2471.31 3511
2472.32 3500
2473.33 3484
2474.34 3475
2475.35 3489
2476.35 3514
2477.36 3505
2478.36 3502
2479.37 3462
2480.37 3507
2481.38 3500
2482.38 3490
2483.38 3488
2484.38 3508
2485.38 3507
2486.38 3488
2487.38 3508
2488.38 3513
2489.38 3476
2490.38 3519
2491.38 3500
2492.37 3481
2493.37 3518
2494.36 3517
2495.36 3467
2496.35 3513
2497.35 3451
2498.34 3485
2499.33 3544
2500.32 3466
2501.32 3443
2502.31 3503
2503.3 3526
2504.28 3497
2505.27 3480
2506.26 3512
2507.25 3459
2508.24 3494
2509.22 3490
2510.21 3480
2511.19 3492
2512.18 3468
2513.16 3485
2514.14 3534
2515.13 3481
2516.11 3501
2517.09 3477
2518.07 3467
2519.05 3498
2520.03 3480
2521.01 3508
2521.98 3487
2522.96 3543
2523.94 3494
2524.91 3477
2525.89 3476
2526.86 3507
2527.84 3483
2528.81 3501
2529.79 3475
2530.76 3509
2531.73 3468
2532.7 3467
2533.67 3483
2534.64 3490
2535.61 3515
2536.58 3477
2537.55 3507
2538.52 3487
2539.48 3472
2540.45 3488
2541.41 3500
2542.38 3511
2543.34 3548
2544.31 3506
2545.27 3461
2546.23 3525
2547.2 3491
2548.16 3497
2549.12 3496
2550.08 3511
2551.04 3404
2552 3483
2552.95 3484
2553.91 3541
2554.87 3506
2555.83 3446
2556.78 3480
2557.74 3541
2558.69 3506
2559.65 3477
2560.6 3484
2561.55 3513
2562.5 3484
2563.45 3518
2564.41 3511
2565.36 3506
2566.31 3487
2567.25 3501
2568.2 3466
2569.15 3520
2570.1 3496
2571.05 3471
2571.99 3507
2572.94 3622
2573.88 3472
2574.83 3497
2575.77 3523
2576.71 3506
2577.65 3480
2578.6 3513
2579.54 3510
2580.48 3482
2581.42 3498
2582.36 3498
2583.3 3519
2584.23 3492
2585.17 3481
2586.11 3517
2587.04 3516
2587.98 3488
2588.91 3505
2589.85 3463
2590.78 3487
2591.71 3477
2592.65 3525
2593.58 3483
2594.51 3454
2595.44 3506
2596.37 3483
2597.3 3500
2598.23 3527
2599.16 3496
2600.09 3528
2601.01 3479
2601.94 3453
2602.87 3600
2603.79 3477
2604.71 3501
2605.64 3464
2606.56 3528
2607.48 3493
2608.41 3511
2609.33 3499
2610.25 3481
2611.17 3517
2612.09 3472
2613.01 3488
2613.93 3520
2614.85 3499
2615.76 3503
2616.68 3481
2617.6 3497
2618.51 3493
2619.43 3500
2620.34 3499
2621.25 3502
2622.17 3530
2623.08 3479
2623.99 3461
2624.9 3499
2625.81 3489
2626.72 3494
2627.63 3502
2628.54 3491
2629.45 3488
2630.36 3503
2631.26 3478
2632.17 3525
2633.07 3480
2633.98 3501
2634.88 3519
2635.79 3514
2636.69 3511
2637.59 3458
2638.5 3455
2639.4 3522
2640.3 3541
2641.2 3522
2642.1 3524
2643 3476
2643.9 3514
2644.79 3500
2645.69 3461
2646.59 3501
2647.48 3521
2648.38 3478
2649.27 3529
2650.17 3519
2651.06 3499
2651.95 3491
2652.85 3582
2653.74 3487
2654.63 3544
2655.52 3484
2656.41 3500
2657.3 3509
2658.19 3512
2659.08 3477
2659.96 3477
2660.85 3489
2661.74 3511
2662.62 3480
2663.51 3471
2664.39 3527
2665.28 3498
2666.16 3475
2667.04 3581
2667.92 3503
2668.81 3506
2669.69 3504
2670.57 3487
2671.45 3499
2672.33 3527
2673.2 3480
2674.08 3452
2674.96 3443
2675.84 3491
2676.71 3506
2677.59 3457
2678.46 3481
2679.34 3491
2680.21 3475
2681.08 3524
2681.95 3514
2682.83 3470
2683.7 3491
2684.57 3544
2685.44 3497
2686.31 3510
2687.18 3468
2688.04 3482
2688.91 3525
2689.78 3479
2690.64 3510
2691.51 3521
2692.37 3496
2693.24 3503
2694.1 3520
2694.97 3494
2695.83 3499
2696.69 3489
2697.55 3491
2698.41 3489
2699.27 3482
2700.13 3480
2700.99 3496
2701.85 3507
2702.71 3522
2703.57 3480
2704.42 3521
2705.28 3449
2706.13 3470
2706.99 3486
2707.84 3493
2708.7 3512
2709.55 3498
2710.4 3492
2711.25 3485
2712.1 3486
2712.96 3477
2713.8 3489
2714.65 3509
2715.5 3531
2716.35 3485
2717.2 3476
2718.05 3538
2718.89 3472
2719.74 3511
2720.58 3494
2721.43 3506
2722.27 3525
2723.11 3465
2723.96 3486
2724.8 3521
2725.64 3502
2726.48 3519
2727.32 3499
2728.16 3502
2729 3474
2729.84 3493
2730.68 3466
2731.51 3476
2732.35 3484
2733.19 3506
2734.02 3519
2734.86 3497
2735.69 3493
2736.52 3522
2737.36 3536
2738.19 3475
2739.02 3486
2739.85 3534
2740.68 3480
2741.51 3494
2742.34 3498
2743.17 3521
2744 3433
2744.83 3486
2745.65 3530
2746.48 3469
2747.31 3543
2748.13 3511
2748.96 3493
2749.78 3525
2750.6 3476
2751.43 3483
2752.25 3463
2753.07 3510
2753.89 3483
2754.71 3508
2755.53 3463
2756.35 3466
2757.17 3512
2757.98 3519
2758.8 3445
2759.62 3520
2760.43 3449
2761.25 3489
2762.06 3532
2762.88 3591
2763.69 3474
2764.51 3495
2765.32 3467
2766.13 3506
2766.94 3472
2767.75 3474
2768.56 3479
2769.37 3519
2770.18 3497
2770.99 3497
2771.79 3504
2772.6 3484
2773.41 3519
2774.21 3523
2775.02 3438
2775.82 3496
2776.63 3509
2777.43 3448
2778.23 3491
2779.03 3494
2779.84 3486
2780.64 3476
2781.44 3517
2782.24 3536
2783.04 3477
2783.83 3473
2784.63 3485
2785.43 3476
2786.23 3497
2787.02 3511
2787.82 3508
2788.61 3466
2789.41 3474
2790.2 3499
2790.99 3527
2791.78 3516
2792.58 3461
2793.37 3470
2794.16 3483
2794.95 3495
2795.74 3492
2796.52 3504
2797.31 3489
2798.1 3499
2798.89 3504
2799.67 3525
2800.46 3465
2801.24 3487
2802.03 3499
2802.81 3498
2803.59 3480
2804.38 3508
2805.16 3496
2805.94 3487
2806.72 3453
2807.5 3530
2808.28 3521
2809.06 3505
2809.84 3503
2810.62 3498
2811.39 3469
2812.17 3524
2812.94 3494
2813.72 3468
2814.49 3441
2815.27 3508
2816.04 3510
2816.81 3530
2817.59 3481
2818.36 3504
2819.13 3477
2819.9 3502
2820.67 3493
2821.44 3480
2822.21 3482
2822.97 3503
2823.74 3530
2824.51 3496
2825.27 3514
2826.04 3481
2826.8 3496
2827.57 3477
2828.33 3482
2829.09 3501
2829.86 3507
2830.62 3489
2831.38 3471
2832.14 3509
2832.9 3519
2833.66 3478
2834.42 3531
2835.18 3439
2835.93 3478
2836.69 3502
2837.45 3485
2838.2 3459
2838.96 3498
2839.71 3476
2840.46 3493
2841.22 3442
2841.97 3523
2842.72 3477
2843.47 3468
2844.22 3475
2844.97 3484
2845.72 3510
2846.47 3480
2847.22 3476
2847.97 3471
2848.72 3505
2849.46 3481
2850.21 3512
2850.95 3472
2851.7 3482
2852.44 3488
2853.18 3455
2853.93 3485
2854.67 3468
2855.41 3465
2856.15 3476
2856.89 3495
2857.63 3503
2858.37 3494
2859.11 3506
2859.85 3473
2860.58 3491
2861.32 3515
2862.05 3521
2862.79 3486
2863.52 3483
2864.26 3483
2864.99 3488
2865.72 3479
2866.46 3512
2867.19 3467
2867.92 3480
2868.65 3454
2869.38 3483
2870.11 3540
2870.84 3504
2871.56 3532
2872.29 3517
2873.02 3502
2873.74 3573
2874.47 3629
2875.19 3581
2875.92 3624
2876.64 3657
2877.36 3647
2878.09 3655
2878.81 3622
2879.53 3610
2880.25 3654
2880.97 3558
2881.69 3535
2882.41 3529
2883.12 3508
2883.84 3476
2884.56 3497
2885.27 3539
2885.99 3470
2886.7 3497
2887.42 3514
2888.13 3492
2888.84 3495
2889.56 3468
2890.27 3483
2890.98 3489
2891.69 3477
2892.4 3502
2893.11 3540
2893.82 3459
2894.52 3475
2895.23 3471
2895.94 3478
2896.64 3477
2897.35 3495
2898.05 3478
2898.76 3459
2899.46 3474
2900.16 3475
2900.87 3463
2901.57 3500
2902.27 3456
2902.97 3572
2903.67 3460
2904.37 3459
2905.06 3468
