scanname 扫描253
timestamp 1/1/1970 00:22
ccdbias 1677.02
ccdgain 2.46132
sigmaread 11.4449
laserwavenum -0.536069
wavenumcorrection -0.808974
scancount 1
totalexposurems 659
singleexposurems 659
measurementstate Unknown
scanmode Identification
snr 20.8273 20.8273 20.8273
replacelist 0
peaks 27
290.935 0.431782 0 11.6077 0.00109319
355.777 0.41399 0 7.98521 0.00079344
479.251 0.361445 0 0.168066 3.7139e-05
495.625 0.376875 0 2.65382 0.000346714
568.699 0.340248 0 0.374481 7.76936e-05
612.664 0.346408 0 1.31159 0.000152841
703.955 0.314748 0 0.224471 3.14948e-05
739.175 0.311925 0 0.174537 1.1928e-05
745.488 0.313658 0 0.488939 6.33359e-05
768.15 0.309868 0 0.26685 7.98588e-05
807.162 0.402444 0 16.6236 0.00215414
840.012 0.349178 0 8.21255 0.00111671
930.843 0.325803 0 4.2618 0.000683327
953.894 0.303413 0 1.87973 0.000373827
1079.43 0.305556 0 2.8727 0.00056858
1128.33 0.270712 0 0.0834392 1.81461e-05
1201.13 0.299283 0 3.0038 0.000651218
1246.71 0.29565 0 1.29686 0.000396718
1311.65 0.292131 0 0.348721 0.000144954
1353.06 0.812021 0 25.8718 0.0076194
1376.32 0.408595 0 4.83357 0.00132106
1544.07 0.347973 0 3.47415 0.00119804
1597.33 0.31735 0 3.70855 0.00124218
1625.94 0.237592 0 0.199678 0.000102959
1982.33 0.173501 0 0.164475 5.12468e-05
2065.62 0.167092 0 0.194816 0.000116502
2868.67 0.120199 0 0.14295 0.000632508
finalresult No match found 1A10697	1.2372e-38
spectrum 2048
-91.2478 0.0148612
-88.6498 0.0140845
-86.0534 0.231893
-83.4589 0.251425
-80.8659 0.283132
-78.2748 0.274708
-75.6853 0.191262
-73.0974 0.289715
-70.5114 0.297572
-67.927 0.267602
-65.3443 0.288857
-62.7633 0.253023
-60.1841 0.264217
-57.6064 0.298199
-55.0305 0.301336
-52.4563 0.315942
-49.8838 0.309486
-47.3131 0.336844
-44.7439 0.365046
-42.1765 0.400923
-39.6107 0.345766
-37.0466 0.391427
-34.4843 0.373576
-31.9235 0.407407
-29.3645 0.41767
-26.8071 0.417544
-24.2516 0.41784
-21.6976 0.448504
-19.1452 0.444826
-16.5946 0.476365
-14.0456 0.527113
-11.4984 0.61705
-8.95279 0.6863
-6.40894 0.430434
-3.86666 0.163631
-1.326 0.133333
1.21284 0.133861
3.75018 0.134452
6.28568 0.143634
8.81962 0.268195
11.3519 0.235358
13.8825 0.283879
16.4115 0.352286
18.9387 0.369793
21.4643 0.338975
23.9883 0.336325
26.5106 0.328644
29.0313 0.34255
31.5503 0.350085
34.0676 0.334755
36.5833 0.352928
39.0974 0.350633
41.6097 0.306294
44.1205 0.289835
46.6296 0.282445
49.1371 0.276659
51.6429 0.244422
54.147 0.275904
56.6496 0.254284
59.1505 0.239472
61.6497 0.244056
64.1473 0.242244
66.6433 0.221415
69.1377 0.235031
71.6304 0.243294
74.1214 0.231042
76.6108 0.253683
79.0987 0.249252
81.5848 0.272204
84.0694 0.251689
86.5523 0.244049
89.0336 0.244493
91.5133 0.262752
93.9913 0.25898
96.4678 0.24027
98.9425 0.28217
101.416 0.24444
103.887 0.252555
106.357 0.271605
108.826 0.291838
111.292 0.277134
113.757 0.357136
116.221 0.3454
118.683 0.329858
121.143 0.38934
123.602 0.390802
126.059 0.411698
128.514 0.425806
130.968 0.438949
133.42 0.430252
135.871 0.421842
138.32 0.412252
140.767 0.403089
143.213 0.401913
145.657 0.402197
148.1 0.395574
150.541 0.389991
152.98 0.385773
155.418 0.381976
157.855 0.382169
160.289 0.374152
162.722 0.374301
165.154 0.373282
167.584 0.3696
170.012 0.372525
172.439 0.368017
174.864 0.367358
177.287 0.366478
179.709 0.365302
182.13 0.368167
184.548 0.370603
186.966 0.370117
189.381 0.368389
191.795 0.366049
194.208 0.371407
196.619 0.365866
199.028 0.367696
201.436 0.368765
203.842 0.372346
206.247 0.379502
208.65 0.396475
211.051 0.415801
213.451 0.441553
215.85 0.457733
218.246 0.459235
220.642 0.440189
223.035 0.425969
225.427 0.413478
227.818 0.414774
230.207 0.42981
232.594 0.43771
234.98 0.438204
237.364 0.430711
239.747 0.41321
242.128 0.39445
244.508 0.385773
246.886 0.376202
249.263 0.375725
251.638 0.376087
254.011 0.368727
256.383 0.36527
258.754 0.366239
261.123 0.358801
263.49 0.358958
265.856 0.355839
268.22 0.356277
270.582 0.35645
272.944 0.356138
275.303 0.35865
277.661 0.357986
280.018 0.360359
282.373 0.367403
284.726 0.388466
287.078 0.412963
289.429 0.435375
291.777 0.434602
294.125 0.41671
296.471 0.390939
298.815 0.369241
301.158 0.355901
303.499 0.354423
305.839 0.352697
308.177 0.350962
310.514 0.349868
312.849 0.350351
315.182 0.35147
317.514 0.351042
319.845 0.351193
322.174 0.351108
324.502 0.351711
326.828 0.349187
329.152 0.351488
331.476 0.349831
333.797 0.347952
336.117 0.34961
338.436 0.350353
340.753 0.351293
343.068 0.351112
345.382 0.356672
347.695 0.366679
350.006 0.380772
352.315 0.401965
354.623 0.416793
356.93 0.416579
359.235 0.402552
361.538 0.386893
363.84 0.374493
366.141 0.366147
368.44 0.360848
370.738 0.358771
373.034 0.354549
375.328 0.352375
377.621 0.34999
379.913 0.346169
382.203 0.345763
384.492 0.343451
386.779 0.340893
389.064 0.343639
391.349 0.340627
393.631 0.343065
395.913 0.341437
398.192 0.339591
400.471 0.338054
402.748 0.338057
405.023 0.341701
407.297 0.338998
409.569 0.34215
411.84 0.338307
414.11 0.332815
416.377 0.333525
418.644 0.336865
420.909 0.340706
423.173 0.338475
425.435 0.339895
427.695 0.343023
429.955 0.341694
432.212 0.342371
434.469 0.341301
436.723 0.344385
438.977 0.341904
441.229 0.343376
443.479 0.34113
445.728 0.34286
447.976 0.344844
450.222 0.343335
452.466 0.346088
454.709 0.347218
456.951 0.347073
459.191 0.350968
461.43 0.347716
463.668 0.353187
465.904 0.355979
468.138 0.357518
470.371 0.35975
472.603 0.359238
474.833 0.363512
477.062 0.356247
479.289 0.36063
481.515 0.360882
483.739 0.362808
485.962 0.367526
488.184 0.366863
490.404 0.367469
492.623 0.37443
494.84 0.374541
497.056 0.37777
499.27 0.372733
501.483 0.36406
503.694 0.354546
505.905 0.350167
508.113 0.343706
510.321 0.343518
512.526 0.340714
514.731 0.339935
516.934 0.337977
519.135 0.338758
521.336 0.339117
523.534 0.337515
525.732 0.335672
527.928 0.334911
530.122 0.334122
532.315 0.333997
534.507 0.334415
536.697 0.337738
538.886 0.336344
541.073 0.335498
543.259 0.332021
545.444 0.336016
547.627 0.334521
549.809 0.333455
551.989 0.33109
554.169 0.33538
556.346 0.334127
558.522 0.332779
560.697 0.335389
562.871 0.337286
565.043 0.337282
567.213 0.340218
569.382 0.340816
571.55 0.342481
573.717 0.336341
575.882 0.33614
578.045 0.335829
580.208 0.331767
582.369 0.332484
584.528 0.331368
586.686 0.332756
588.843 0.333245
590.998 0.332258
593.152 0.331959
595.305 0.334188
597.456 0.333779
599.606 0.331672
601.754 0.335853
603.901 0.336695
606.047 0.337853
608.191 0.345789
610.334 0.347082
612.476 0.344254
614.616 0.346137
616.755 0.343459
618.892 0.339639
621.028 0.336863
623.163 0.3294
625.296 0.329361
627.428 0.32623
629.559 0.325261
631.688 0.323647
633.816 0.324348
635.942 0.324282
638.067 0.320218
640.191 0.32111
642.313 0.318317
644.434 0.321458
646.554 0.320371
648.673 0.318872
650.79 0.319345
652.905 0.317719
655.019 0.319979
657.132 0.318154
659.244 0.317043
661.354 0.316886
663.463 0.315912
665.57 0.316582
667.677 0.314359
669.781 0.31595
671.885 0.314803
673.987 0.315295
676.088 0.315829
678.187 0.314566
680.285 0.316093
682.382 0.317307
684.478 0.313856
686.572 0.313582
688.664 0.312673
690.756 0.308744
692.846 0.311306
694.935 0.312615
697.022 0.311621
699.108 0.313986
701.193 0.315882
703.276 0.317353
705.358 0.313415
707.439 0.313831
709.519 0.31246
711.597 0.313593
713.673 0.309184
715.749 0.312672
717.823 0.309285
719.896 0.310886
721.967 0.309547
724.037 0.310049
726.106 0.311388
728.174 0.311986
730.24 0.312236
732.305 0.307733
734.368 0.308695
736.431 0.306357
738.492 0.313705
740.551 0.310775
742.61 0.313727
744.667 0.314149
746.722 0.31332
748.777 0.314161
750.83 0.309834
752.882 0.310155
754.932 0.306704
756.981 0.30688
759.029 0.306981
761.075 0.306314
763.121 0.308016
765.165 0.305936
767.207 0.313141
769.249 0.309865
771.289 0.308459
773.327 0.307938
775.365 0.304655
777.401 0.303671
779.436 0.302927
781.47 0.299115
783.502 0.302505
785.533 0.301645
787.563 0.302707
789.591 0.302978
791.618 0.304267
793.644 0.302963
795.668 0.302575
797.692 0.306556
799.714 0.313098
801.734 0.335904
803.754 0.376543
805.772 0.406139
807.789 0.404826
809.804 0.38563
811.819 0.341037
813.832 0.315939
815.843 0.304123
817.854 0.300834
819.863 0.302849
821.871 0.300905
823.878 0.298634
825.883 0.299858
827.887 0.300118
829.89 0.302625
831.892 0.303051
833.892 0.30949
835.891 0.325268
837.889 0.34532
839.885 0.353525
841.88 0.342519
843.874 0.332153
845.867 0.311296
847.858 0.297909
849.849 0.300189
851.838 0.297567
853.825 0.296048
855.812 0.294151
857.797 0.294101
859.781 0.293785
861.763 0.29263
863.745 0.293183
865.725 0.29299
867.704 0.288108
869.681 0.291512
871.658 0.291808
873.633 0.290938
875.607 0.288456
877.579 0.288364
879.551 0.285452
881.521 0.288701
883.49 0.288402
885.458 0.291039
887.424 0.290483
889.389 0.290382
891.353 0.288913
893.316 0.2866
895.277 0.286243
897.237 0.284934
899.196 0.286358
901.154 0.286325
903.111 0.28598
905.066 0.289342
907.02 0.289845
908.973 0.291661
910.924 0.29064
912.875 0.290354
914.824 0.291129
916.772 0.289732
918.718 0.290687
920.664 0.290833
922.608 0.292888
924.551 0.300585
926.493 0.309505
928.433 0.32245
930.373 0.326597
932.311 0.324028
934.248 0.319053
936.183 0.305422
938.118 0.297952
940.051 0.292338
941.983 0.288261
943.914 0.287613
945.843 0.286664
947.772 0.289459
949.699 0.296351
951.625 0.302422
953.549 0.302991
955.473 0.30201
957.395 0.299251
959.316 0.292343
961.236 0.289161
963.155 0.287318
965.072 0.28516
966.989 0.284381
968.904 0.282869
970.818 0.280641
972.73 0.282035
974.642 0.281976
976.552 0.278967
978.461 0.281313
980.369 0.281507
982.276 0.280457
984.181 0.279216
986.085 0.281258
987.988 0.275091
989.89 0.277574
991.791 0.278818
993.69 0.275492
995.589 0.276446
997.486 0.28015
999.382 0.27768
1001.28 0.281235
1003.17 0.278842
1005.06 0.276862
1006.95 0.275314
1008.84 0.276453
1010.73 0.276438
1012.62 0.274303
1014.51 0.276512
1016.39 0.276571
1018.28 0.276771
1020.16 0.279334
1022.04 0.27898
1023.92 0.274927
1025.8 0.276276
1027.68 0.277559
1029.56 0.274143
1031.43 0.276043
1033.31 0.274604
1035.18 0.275894
1037.05 0.277298
1038.92 0.273144
1040.79 0.274711
1042.66 0.272908
1044.53 0.274135
1046.4 0.271076
1048.26 0.275166
1050.13 0.271726
1051.99 0.276008
1053.85 0.275088
1055.71 0.27301
1057.57 0.27302
1059.43 0.275039
1061.29 0.27592
1063.14 0.273416
1065 0.276533
1066.85 0.277584
1068.7 0.279917
1070.56 0.283829
1072.41 0.286207
1074.26 0.290491
1076.1 0.297826
1077.95 0.305283
1079.8 0.307435
1081.64 0.302876
1083.48 0.292437
1085.33 0.287832
1087.17 0.281623
1089.01 0.275048
1090.85 0.273407
1092.68 0.273293
1094.52 0.2713
1096.35 0.270712
1098.19 0.268289
1100.02 0.266703
1101.85 0.268113
1103.68 0.269637
1105.51 0.268606
1107.34 0.268816
1109.17 0.267746
1111 0.269367
1112.82 0.266982
1114.64 0.26737
1116.47 0.266097
1118.29 0.270197
1120.11 0.272116
1121.93 0.267092
1123.75 0.270287
1125.56 0.273085
1127.38 0.271299
1129.2 0.26817
1131.01 0.271511
1132.82 0.270561
1134.63 0.268864
1136.44 0.270524
1138.25 0.267702
1140.06 0.267334
1141.87 0.268683
1143.67 0.266615
1145.48 0.266588
1147.28 0.267748
1149.08 0.262296
1150.89 0.264809
1152.69 0.268017
1154.49 0.263132
1156.28 0.264782
1158.08 0.265567
1159.88 0.261419
1161.67 0.264536
1163.46 0.267817
1165.26 0.261124
1167.05 0.262612
1168.84 0.264793
1170.63 0.266533
1172.42 0.262578
1174.2 0.26171
1175.99 0.263406
1177.77 0.263914
1179.56 0.264098
1181.34 0.266537
1183.12 0.265855
1184.9 0.265531
1186.68 0.266443
1188.46 0.265279
1190.24 0.266943
1192.01 0.267448
1193.79 0.270815
1195.56 0.280953
1197.33 0.287845
1199.1 0.29464
1200.87 0.299582
1202.64 0.301116
1204.41 0.291526
1206.18 0.28189
1207.95 0.274095
1209.71 0.269586
1211.47 0.266705
1213.24 0.266178
1215 0.263973
1216.76 0.267876
1218.52 0.265671
1220.28 0.268622
1222.04 0.264567
1223.79 0.264666
1225.55 0.26833
1227.3 0.265139
1229.05 0.26703
1230.81 0.267767
1232.56 0.265047
1234.31 0.269413
1236.05 0.275365
1237.8 0.2773
1239.55 0.278575
1241.29 0.286133
1243.04 0.291119
1244.78 0.291957
1246.52 0.297705
1248.27 0.293748
1250.01 0.291536
1251.75 0.285862
1253.48 0.277269
1255.22 0.269466
1256.96 0.264984
1258.69 0.264974
1260.42 0.26283
1262.16 0.263567
1263.89 0.262041
1265.62 0.263906
1267.35 0.264932
1269.08 0.262577
1270.8 0.259583
1272.53 0.263149
1274.26 0.261456
1275.98 0.260573
1277.7 0.258431
1279.42 0.264114
1281.15 0.262773
1282.87 0.263581
1284.58 0.26612
1286.3 0.266956
1288.02 0.267146
1289.73 0.264386
1291.45 0.26801
1293.16 0.267439
1294.88 0.268953
1296.59 0.271291
1298.3 0.274567
1300.01 0.278021
1301.71 0.283642
1303.42 0.283052
1305.13 0.285647
1306.83 0.289109
1308.54 0.29099
1310.24 0.291693
1311.94 0.292245
1313.64 0.291473
1315.34 0.289011
1317.04 0.289311
1318.74 0.284427
1320.44 0.286766
1322.13 0.285524
1323.83 0.282216
1325.52 0.290329
1327.21 0.292803
1328.91 0.293051
1330.6 0.303566
1332.29 0.315383
1333.98 0.326885
1335.66 0.350047
1337.35 0.370614
1339.03 0.40307
1340.72 0.422842
1342.4 0.441578
1344.08 0.462991
1345.77 0.507222
1347.45 0.581828
1349.13 0.678018
1350.8 0.770071
1352.48 0.821017
1354.16 0.809322
1355.83 0.74365
1357.51 0.662832
1359.18 0.574998
1360.85 0.514934
1362.52 0.466197
1364.19 0.437824
1365.86 0.412448
1367.53 0.398385
1369.2 0.384919
1370.86 0.386778
1372.53 0.390052
1374.19 0.402956
1375.86 0.406361
1377.52 0.40625
1379.18 0.401543
1380.84 0.379084
1382.5 0.358429
1384.15 0.34589
1385.81 0.337914
1387.47 0.335434
1389.12 0.331071
1390.78 0.326717
1392.43 0.313213
1394.08 0.305286
1395.73 0.294453
1397.38 0.287949
1399.03 0.281916
1400.68 0.279371
1402.33 0.273087
1403.97 0.271877
1405.62 0.270768
1407.26 0.270089
1408.9 0.267467
1410.54 0.267278
1412.19 0.264359
1413.83 0.265513
1415.46 0.27115
1417.1 0.267533
1418.74 0.262922
1420.37 0.262857
1422.01 0.26452
1423.64 0.265919
1425.28 0.259851
1426.91 0.262361
1428.54 0.259006
1430.17 0.261925
1431.8 0.258684
1433.43 0.257816
1435.05 0.255428
1436.68 0.254281
1438.3 0.255214
1439.93 0.256311
1441.55 0.255962
1443.17 0.251476
1444.79 0.254432
1446.41 0.252695
1448.03 0.251491
1449.65 0.255523
1451.27 0.253434
1452.88 0.250459
1454.5 0.252211
1456.11 0.251084
1457.73 0.251588
1459.34 0.250064
1460.95 0.249842
1462.56 0.247861
1464.17 0.253294
1465.78 0.249128
1467.39 0.246127
1468.99 0.246361
1470.6 0.24787
1472.2 0.244707
1473.81 0.24842
1475.41 0.248889
1477.01 0.250313
1478.61 0.249108
1480.21 0.251953
1481.81 0.249575
1483.41 0.250253
1485 0.247006
1486.6 0.25005
1488.19 0.249906
1489.79 0.247725
1491.38 0.249842
1492.97 0.246582
1494.56 0.248077
1496.15 0.247377
1497.74 0.246708
1499.33 0.249825
1500.92 0.243554
1502.5 0.246033
1504.09 0.249703
1505.67 0.245498
1507.25 0.247453
1508.84 0.250465
1510.42 0.247904
1512 0.247876
1513.58 0.250391
1515.16 0.248189
1516.73 0.250024
1518.31 0.248757
1519.89 0.249728
1521.46 0.25183
1523.03 0.251904
1524.61 0.255147
1526.18 0.251792
1527.75 0.254545
1529.32 0.257115
1530.89 0.263271
1532.46 0.26632
1534.02 0.274297
1535.59 0.284029
1537.16 0.296975
1538.72 0.314862
1540.28 0.327754
1541.85 0.342582
1543.41 0.35006
1544.97 0.346849
1546.53 0.338395
1548.09 0.32974
1549.64 0.319332
1551.2 0.304752
1552.76 0.305408
1554.31 0.290991
1555.86 0.288075
1557.42 0.281884
1558.97 0.284375
1560.52 0.277632
1562.07 0.272875
1563.62 0.271054
1565.17 0.267204
1566.72 0.25613
1568.26 0.253833
1569.81 0.249084
1571.35 0.246171
1572.9 0.245084
1574.44 0.246677
1575.98 0.242327
1577.52 0.246022
1579.06 0.245931
1580.6 0.246003
1582.14 0.249705
1583.68 0.248908
1585.21 0.251765
1586.75 0.257378
1588.28 0.265859
1589.82 0.270926
1591.35 0.282344
1592.88 0.294086
1594.41 0.30306
1595.94 0.31796
1597.47 0.316915
1599 0.314381
1600.53 0.303454
1602.05 0.290119
1603.58 0.276022
1605.1 0.262806
1606.62 0.255885
1608.15 0.25233
1609.67 0.246332
1611.19 0.239791
1612.71 0.239612
1614.23 0.235454
1615.75 0.237304
1617.26 0.23238
1618.78 0.232821
1620.29 0.234422
1621.81 0.233901
1623.32 0.239045
1624.84 0.236319
1626.35 0.236966
1627.86 0.237582
1629.37 0.237182
1630.88 0.234743
1632.38 0.23411
1633.89 0.23037
1635.4 0.229917
1636.9 0.227205
1638.41 0.223655
1639.91 0.224419
1641.41 0.222164
1642.92 0.221875
1644.42 0.219176
1645.92 0.221521
1647.42 0.218618
1648.91 0.220468
1650.41 0.218358
1651.91 0.21808
1653.4 0.220188
1654.9 0.218272
1656.39 0.216916
1657.88 0.217103
1659.38 0.215816
1660.87 0.213456
1662.36 0.214995
1663.85 0.213926
1665.34 0.215851
1666.82 0.213809
1668.31 0.215181
1669.79 0.210638
1671.28 0.215574
1672.76 0.212405
1674.25 0.209034
1675.73 0.206993
1677.21 0.207917
1678.69 0.206345
1680.17 0.207612
1681.65 0.205312
1683.13 0.205112
1684.6 0.206385
1686.08 0.205926
1687.55 0.202542
1689.03 0.206291
1690.5 0.206984
1691.97 0.203859
1693.45 0.204895
1694.92 0.205987
1696.39 0.210051
1697.86 0.207444
1699.32 0.211595
1700.79 0.209874
1702.26 0.20786
1703.72 0.211012
1705.19 0.20844
1706.65 0.209863
1708.11 0.209145
1709.58 0.212519
1711.04 0.20448
1712.5 0.210165
1713.96 0.20376
1715.42 0.208613
1716.87 0.210325
1718.33 0.207645
1719.79 0.205197
1721.24 0.209508
1722.7 0.206563
1724.15 0.207546
1725.6 0.205391
1727.05 0.203223
1728.5 0.202305
1729.95 0.204795
1731.4 0.203501
1732.85 0.203657
1734.3 0.204652
1735.75 0.201805
1737.19 0.201311
1738.64 0.201461
1740.08 0.201916
1741.52 0.201426
1742.96 0.202536
1744.41 0.2029
1745.85 0.197717
1747.29 0.197607
1748.72 0.201066
1750.16 0.20119
1751.6 0.204055
1753.04 0.200296
1754.47 0.199257
1755.91 0.200992
1757.34 0.201716
1758.77 0.198932
1760.2 0.200298
1761.64 0.203126
1763.07 0.200111
1764.5 0.201229
1765.92 0.201516
1767.35 0.199214
1768.78 0.19968
1770.2 0.200919
1771.63 0.195919
1773.05 0.200976
1774.48 0.197408
1775.9 0.198185
1777.32 0.1973
1778.74 0.193444
1780.16 0.192386
1781.58 0.194609
1783 0.194706
1784.42 0.193542
1785.84 0.195865
1787.25 0.194057
1788.67 0.194512
1790.08 0.190964
1791.49 0.193665
1792.91 0.196314
1794.32 0.192837
1795.73 0.195992
1797.14 0.195655
1798.55 0.195198
1799.96 0.195896
1801.37 0.199213
1802.77 0.198269
1804.18 0.196614
1805.58 0.20027
1806.99 0.200847
1808.39 0.201622
1809.79 0.201427
1811.2 0.201188
1812.6 0.19861
1814 0.200355
1815.4 0.204305
1816.79 0.197949
1818.19 0.199647
1819.59 0.200019
1820.98 0.202391
1822.38 0.196583
1823.77 0.202126
1825.17 0.200746
1826.56 0.200299
1827.95 0.202022
1829.34 0.197468
1830.73 0.199872
1832.12 0.198378
1833.51 0.197598
1834.9 0.19816
1836.29 0.196266
1837.67 0.196566
1839.06 0.196641
1840.44 0.196083
1841.83 0.195488
1843.21 0.193592
1844.59 0.193823
1845.97 0.195848
1847.35 0.194159
1848.73 0.193733
1850.11 0.18856
1851.49 0.186267
1852.87 0.187155
1854.24 0.186574
1855.62 0.186217
1856.99 0.182458
1858.37 0.188452
1859.74 0.189232
1861.11 0.18304
1862.48 0.181759
1863.85 0.185287
1865.22 0.183189
1866.59 0.183114
1867.96 0.182431
1869.33 0.184478
1870.7 0.185659
1872.06 0.182575
1873.43 0.184589
1874.79 0.181107
1876.16 0.174635
1877.52 0.176642
1878.88 0.17696
1880.24 0.177471
1881.6 0.173618
1882.96 0.18002
1884.32 0.178591
1885.68 0.176207
1887.03 0.17382
1888.39 0.175511
1889.75 0.175936
1891.1 0.172202
1892.45 0.174944
1893.81 0.171695
1895.16 0.172612
1896.51 0.174479
1897.86 0.175651
1899.21 0.175828
1900.56 0.174441
1901.91 0.177514
1903.26 0.175592
1904.6 0.175671
1905.95 0.175994
1907.29 0.180095
1908.64 0.179915
1909.98 0.177727
1911.33 0.177842
1912.67 0.178458
1914.01 0.179618
1915.35 0.177636
1916.69 0.175851
1918.03 0.177605
1919.37 0.175745
1920.7 0.179659
1922.04 0.180622
1923.38 0.179807
1924.71 0.176737
1926.04 0.181929
1927.38 0.176705
1928.71 0.176276
1930.04 0.182296
1931.37 0.179827
1932.7 0.176481
1934.03 0.180383
1935.36 0.181538
1936.69 0.180553
1938.02 0.178715
1939.34 0.176112
1940.67 0.17932
1941.99 0.178829
1943.32 0.178166
1944.64 0.17849
1945.96 0.176848
1947.28 0.177716
1948.6 0.173866
1949.92 0.173358
1951.24 0.169962
1952.56 0.172504
1953.88 0.172381
1955.2 0.167368
1956.51 0.16862
1957.83 0.166204
1959.14 0.167868
1960.46 0.165691
1961.77 0.165689
1963.08 0.162679
1964.39 0.166345
1965.71 0.167457
1967.02 0.167147
1968.33 0.168502
1969.63 0.166495
1970.94 0.163061
1972.25 0.167006
1973.55 0.17301
1974.86 0.170421
1976.16 0.1746
1977.47 0.172175
1978.77 0.171171
1980.07 0.175295
1981.38 0.1722
1982.68 0.172773
1983.98 0.172782
1985.28 0.171811
1986.57 0.173633
1987.87 0.169418
1989.17 0.172777
1990.47 0.170965
1991.76 0.171442
1993.06 0.17012
1994.35 0.170215
1995.64 0.170795
1996.94 0.170811
1998.23 0.169817
1999.52 0.168323
2000.81 0.171242
2002.1 0.165455
2003.39 0.171052
2004.68 0.169459
2005.96 0.170104
2007.25 0.169913
2008.53 0.173237
2009.82 0.164826
2011.1 0.164027
2012.39 0.173685
2013.67 0.16737
2014.95 0.171519
2016.23 0.1699
2017.51 0.169581
2018.79 0.168971
2020.07 0.168271
2021.35 0.166671
2022.63 0.16832
2023.9 0.166171
2025.18 0.167654
2026.46 0.169651
2027.73 0.169966
2029 0.167124
2030.28 0.167994
2031.55 0.166987
2032.82 0.165537
2034.09 0.168781
2035.36 0.169507
2036.63 0.165476
2037.9 0.170131
2039.17 0.167626
2040.43 0.167645
2041.7 0.166163
2042.96 0.166371
2044.23 0.16625
2045.49 0.167025
2046.76 0.167685
2048.02 0.167155
2049.28 0.167002
2050.54 0.16918
2051.8 0.167082
2053.06 0.172243
2054.32 0.163717
2055.58 0.166233
2056.84 0.163054
2058.09 0.1603
2059.35 0.160716
2060.6 0.16635
2061.86 0.165133
2063.11 0.166726
2064.37 0.166529
2065.62 0.168813
2066.87 0.168501
2068.12 0.163183
2069.37 0.164906
2070.62 0.16408
2071.87 0.161339
2073.12 0.162373
2074.36 0.15972
2075.61 0.159721
2076.85 0.162581
2078.1 0.160897
2079.34 0.157923
2080.59 0.15778
2081.83 0.158033
2083.07 0.160201
2084.31 0.16244
2085.55 0.159078
2086.79 0.157003
2088.03 0.157185
2089.27 0.153936
2090.51 0.155707
2091.74 0.158953
2092.98 0.157569
2094.22 0.156727
2095.45 0.152659
2096.69 0.158234
2097.92 0.158122
2099.15 0.153573
2100.38 0.15587
2101.61 0.161042
2102.84 0.159556
2104.07 0.162432
2105.3 0.15799
2106.53 0.161406
2107.76 0.157993
2108.99 0.160621
2110.21 0.164193
2111.44 0.160266
2112.66 0.159757
2113.89 0.162078
2115.11 0.156814
2116.33 0.163236
2117.55 0.163581
2118.77 0.159716
2119.99 0.15947
2121.21 0.160114
2122.43 0.156771
2123.65 0.160613
2124.87 0.159041
2126.08 0.160438
2127.3 0.15726
2128.52 0.157324
2129.73 0.160777
2130.94 0.160063
2132.16 0.161421
2133.37 0.160533
2134.58 0.159753
2135.79 0.154222
2137 0.161724
2138.21 0.161198
2139.42 0.162743
2140.63 0.156216
2141.84 0.164888
2143.04 0.159187
2144.25 0.156621
2145.46 0.158258
2146.66 0.159895
2147.86 0.157334
2149.07 0.159426
2150.27 0.159333
2151.47 0.15698
2152.67 0.159458
2153.87 0.159699
2155.07 0.157467
2156.27 0.155904
2157.47 0.162101
2158.67 0.157542
2159.86 0.157712
2161.06 0.163964
2162.26 0.158465
2163.45 0.161518
2164.64 0.157814
2165.84 0.157716
2167.03 0.156999
2168.22 0.157675
2169.41 0.156267
2170.6 0.156519
2171.79 0.156874
2172.98 0.153374
2174.17 0.15405
2175.36 0.156502
2176.55 0.153775
2177.73 0.154436
2178.92 0.156179
2180.1 0.154109
2181.29 0.154651
2182.47 0.150852
2183.65 0.152577
2184.84 0.152685
2186.02 0.152248
2187.2 0.156097
2188.38 0.153515
2189.56 0.150078
2190.74 0.152425
2191.91 0.15091
2193.09 0.154531
2194.27 0.152329
2195.44 0.153585
2196.62 0.15256
2197.79 0.154846
2198.97 0.154341
2200.14 0.153456
2201.31 0.152292
2202.49 0.151303
2203.66 0.152134
2204.83 0.151625
2206 0.15465
2207.17 0.155646
2208.33 0.150918
2209.5 0.152515
2210.67 0.153815
2211.83 0.159151
2213 0.149256
2214.16 0.158763
2215.33 0.15243
2216.49 0.154146
2217.66 0.153966
2218.82 0.150746
2219.98 0.155111
2221.14 0.150659
2222.3 0.153774
2223.46 0.153333
2224.62 0.154608
2225.78 0.148899
2226.93 0.154704
2228.09 0.152998
2229.25 0.153011
2230.4 0.147205
2231.56 0.152849
2232.71 0.150564
2233.86 0.15203
2235.02 0.151328
2236.17 0.156431
2237.32 0.145999
2238.47 0.153816
2239.62 0.153087
2240.77 0.152271
2241.92 0.149964
2243.06 0.148309
2244.21 0.159046
2245.36 0.153227
2246.5 0.150579
2247.65 0.14957
2248.79 0.154029
2249.94 0.148421
2251.08 0.150856
2252.22 0.15595
2253.36 0.149646
2254.5 0.153075
2255.64 0.151714
2256.78 0.153794
2257.92 0.151453
2259.06 0.149093
2260.2 0.15312
2261.34 0.152968
2262.47 0.156641
2263.61 0.148613
2264.74 0.156179
2265.88 0.151986
2267.01 0.150773
2268.14 0.149256
2269.28 0.14762
2270.41 0.151309
2271.54 0.153423
2272.67 0.152526
2273.8 0.151356
2274.93 0.149427
2276.06 0.148321
2277.18 0.150642
2278.31 0.15225
2279.44 0.152729
2280.56 0.1519
2281.69 0.144614
2282.81 0.148024
2283.93 0.14922
2285.06 0.145949
2286.18 0.1503
2287.3 0.145694
2288.42 0.149862
2289.54 0.146982
2290.66 0.148834
2291.78 0.150034
2292.9 0.150835
2294.02 0.153216
2295.13 0.146623
2296.25 0.147302
2297.36 0.15065
2298.48 0.145522
2299.59 0.145241
2300.71 0.146177
2301.82 0.146476
2302.93 0.151219
2304.04 0.145437
2305.15 0.144701
2306.26 0.151477
2307.37 0.151348
2308.48 0.142402
2309.59 0.145656
2310.7 0.148577
2311.81 0.144158
2312.91 0.14929
2314.02 0.149765
2315.12 0.149847
2316.23 0.145045
2317.33 0.144485
2318.43 0.140471
2319.53 0.147314
2320.64 0.14565
2321.74 0.152419
2322.84 0.145603
2323.94 0.146655
2325.04 0.145495
2326.13 0.144697
2327.23 0.143995
2328.33 0.140686
2329.43 0.148979
2330.52 0.147775
2331.62 0.143381
2332.71 0.141398
2333.8 0.14343
2334.9 0.14193
2335.99 0.144293
2337.08 0.140702
2338.17 0.145653
2339.26 0.142773
2340.35 0.139072
2341.44 0.140465
2342.53 0.145682
2343.62 0.140721
2344.71 0.143747
2345.79 0.14224
2346.88 0.145656
2347.96 0.144437
2349.05 0.14373
2350.13 0.138825
2351.22 0.143808
2352.3 0.141774
2353.38 0.143
2354.46 0.147592
2355.54 0.142397
2356.62 0.144891
2357.7 0.141121
2358.78 0.145219
2359.86 0.142211
2360.93 0.13693
2362.01 0.143275
2363.09 0.137473
2364.16 0.144861
2365.24 0.14822
2366.31 0.142159
2367.39 0.144866
2368.46 0.144098
2369.53 0.141853
2370.6 0.142578
2371.67 0.144214
2372.74 0.146163
2373.81 0.140929
2374.88 0.141591
2375.95 0.144552
2377.02 0.143791
2378.09 0.142771
2379.15 0.13788
2380.22 0.142006
2381.28 0.142843
2382.35 0.139762
2383.41 0.138494
2384.47 0.137404
2385.54 0.137471
2386.6 0.139477
2387.66 0.144545
2388.72 0.138313
2389.78 0.135949
2390.84 0.141851
2391.9 0.139956
2392.96 0.137452
2394.01 0.140359
2395.07 0.136454
2396.13 0.13894
2397.18 0.137734
2398.24 0.138104
2399.29 0.141796
2400.34 0.141053
2401.4 0.136636
2402.45 0.143431
2403.5 0.144012
2404.55 0.13715
2405.6 0.136026
2406.65 0.142769
2407.7 0.136839
2408.75 0.135241
2409.8 0.1361
2410.84 0.135604
2411.89 0.133731
2412.94 0.134206
2413.98 0.136559
2415.03 0.130876
2416.07 0.137799
2417.11 0.132689
2418.16 0.135927
2419.2 0.1357
2420.24 0.135447
2421.28 0.135251
2422.32 0.1393
2423.36 0.136095
2424.4 0.138533
2425.44 0.141559
2426.48 0.138872
2427.51 0.138297
2428.55 0.130963
2429.58 0.137384
2430.62 0.133157
2431.65 0.140592
2432.69 0.137557
2433.72 0.135889
2434.75 0.137104
2435.78 0.132859
2436.82 0.13236
2437.85 0.140391
2438.88 0.133581
2439.91 0.142202
2440.93 0.136384
2441.96 0.134572
2442.99 0.138621
2444.02 0.140351
2445.04 0.130191
2446.07 0.134281
2447.09 0.131425
2448.12 0.135816
2449.14 0.132505
2450.16 0.135027
2451.19 0.136612
2452.21 0.133939
2453.23 0.134828
2454.25 0.139038
2455.27 0.132798
2456.29 0.132433
2457.31 0.132683
2458.33 0.131378
2459.34 0.131331
2460.36 0.128634
2461.38 0.128082
2462.39 0.133041
2463.41 0.135494
2464.42 0.134438
2465.43 0.140128
2466.45 0.132391
2467.46 0.136806
2468.47 0.126821
2469.48 0.13257
2470.49 0.131149
2471.5 0.133855
2472.51 0.135151
2473.52 0.131176
2474.53 0.135337
2475.54 0.131825
2476.54 0.137137
2477.55 0.134648
2478.55 0.130376
2479.56 0.125944
2480.56 0.134565
2481.57 0.128321
2482.57 0.131181
2483.57 0.134871
2484.57 0.131563
2485.57 0.129065
2486.57 0.13102
2487.57 0.128283
2488.57 0.132587
2489.57 0.131033
2490.57 0.130706
2491.57 0.129888
2492.56 0.12998
2493.56 0.13025
2494.55 0.13202
2495.55 0.126375
2496.54 0.128923
2497.54 0.129772
2498.53 0.130742
2499.52 0.131689
2500.51 0.13345
2501.51 0.132342
2502.5 0.130272
2503.49 0.134336
2504.47 0.133824
2505.46 0.125302
2506.45 0.132633
2507.44 0.135766
2508.43 0.132317
2509.41 0.128812
2510.4 0.136753
2511.38 0.132805
2512.37 0.125721
2513.35 0.128874
2514.33 0.134707
2515.32 0.127501
2516.3 0.128857
2517.28 0.13162
2518.26 0.128312
2519.24 0.125993
2520.22 0.132517
2521.2 0.13267
2522.17 0.129387
2523.15 0.122382
2524.13 0.131867
2525.1 0.128901
2526.08 0.134243
2527.05 0.13122
2528.03 0.124233
2529 0.129719
2529.98 0.126024
2530.95 0.132976
2531.92 0.130352
2532.89 0.126652
2533.86 0.128321
2534.83 0.12375
2535.8 0.125403
2536.77 0.136902
2537.74 0.129246
2538.71 0.124266
2539.67 0.129932
2540.64 0.130218
2541.6 0.130412
2542.57 0.129478
2543.53 0.131125
2544.5 0.12676
2545.46 0.129822
2546.42 0.127361
2547.39 0.127412
2548.35 0.128973
2549.31 0.128192
2550.27 0.123359
2551.23 0.130366
2552.19 0.122928
2553.14 0.124852
2554.1 0.125977
2555.06 0.128066
2556.02 0.125288
2556.97 0.127701
2557.93 0.122531
2558.88 0.120436
2559.84 0.129612
2560.79 0.134592
2561.74 0.120001
2562.69 0.121596
2563.64 0.119514
2564.6 0.12588
2565.55 0.12609
2566.5 0.126849
2567.44 0.119085
2568.39 0.133242
2569.34 0.122223
2570.29 0.124893
2571.24 0.128987
2572.18 0.123608
2573.13 0.121958
2574.07 0.118707
2575.02 0.126731
2575.96 0.115072
2576.9 0.12409
2577.84 0.126533
2578.79 0.125803
2579.73 0.126059
2580.67 0.126777
2581.61 0.127378
2582.55 0.129028
2583.49 0.1224
2584.42 0.125983
2585.36 0.124783
2586.3 0.121823
2587.23 0.127746
2588.17 0.122995
2589.1 0.123042
2590.04 0.123997
2590.97 0.116287
2591.9 0.118518
2592.84 0.116213
2593.77 0.126944
2594.7 0.12525
2595.63 0.12507
2596.56 0.125396
2597.49 0.121739
2598.42 0.124636
2599.35 0.123441
2600.28 0.124901
2601.2 0.117473
2602.13 0.125281
2603.06 0.117029
2603.98 0.124587
2604.9 0.122909
2605.83 0.122704
2606.75 0.126028
2607.67 0.126288
2608.6 0.119529
2609.52 0.122248
2610.44 0.128109
2611.36 0.125501
2612.28 0.124958
2613.2 0.123599
2614.12 0.122436
2615.04 0.123444
2615.95 0.128527
2616.87 0.123307
2617.79 0.123519
2618.7 0.129113
2619.62 0.119982
2620.53 0.1262
2621.44 0.122426
2622.36 0.132529
2623.27 0.129468
2624.18 0.134146
2625.09 0.124481
2626 0.125985
2626.91 0.129912
2627.82 0.126745
2628.73 0.124673
2629.64 0.128887
2630.55 0.127555
2631.45 0.127646
2632.36 0.128569
2633.26 0.123621
2634.17 0.123203
2635.07 0.131994
2635.98 0.125279
2636.88 0.126393
2637.78 0.122516
2638.69 0.123245
2639.59 0.121981
2640.49 0.126564
2641.39 0.124222
2642.29 0.119286
2643.19 0.122518
2644.09 0.121045
2644.98 0.113354
2645.88 0.12045
2646.78 0.127512
2647.67 0.112794
2648.57 0.119933
2649.46 0.117306
2650.36 0.116677
2651.25 0.124504
2652.14 0.125941
2653.04 0.120882
2653.93 0.121232
2654.82 0.122451
2655.71 0.123277
2656.6 0.116792
2657.49 0.1185
2658.38 0.120864
2659.27 0.12376
2660.15 0.121364
2661.04 0.125488
2661.93 0.126265
2662.81 0.120237
2663.7 0.116799
2664.58 0.122381
2665.47 0.125069
2666.35 0.114438
2667.23 0.124655
2668.11 0.118301
2669 0.123085
2669.88 0.119164
2670.76 0.124287
2671.64 0.118996
2672.52 0.120086
2673.39 0.11997
2674.27 0.115783
2675.15 0.125131
2676.03 0.132083
2676.9 0.123526
2677.78 0.122041
2678.65 0.119401
2679.53 0.124285
2680.4 0.12327
2681.27 0.123661
2682.14 0.123397
2683.02 0.118243
2683.89 0.121148
2684.76 0.127319
2685.63 0.126166
2686.5 0.116146
2687.37 0.118075
2688.23 0.129778
2689.1 0.117573
2689.97 0.127366
2690.83 0.12674
2691.7 0.122753
2692.56 0.125753
2693.43 0.124831
2694.29 0.118843
2695.16 0.107754
2696.02 0.126863
2696.88 0.118515
2697.74 0.12494
2698.6 0.136734
2699.46 0.107677
2700.32 0.119915
2701.18 0.121883
2702.04 0.12296
2702.9 0.115172
2703.76 0.12377
2704.61 0.118235
2705.47 0.117945
2706.32 0.127906
2707.18 0.119587
2708.03 0.129493
2708.89 0.128145
2709.74 0.116841
2710.59 0.121022
2711.44 0.126524
2712.29 0.117986
2713.15 0.115732
2713.99 0.126825
2714.84 0.113217
2715.69 0.114658
2716.54 0.110554
2717.39 0.119637
2718.24 0.117651
2719.08 0.129617
2719.93 0.115618
2720.77 0.109844
2721.62 0.117124
2722.46 0.117077
2723.3 0.109584
2724.15 0.11848
2724.99 0.116502
2725.83 0.116557
2726.67 0.117385
2727.51 0.12314
2728.35 0.121389
2729.19 0.120385
2730.03 0.116834
2730.87 0.121806
2731.7 0.120383
2732.54 0.119206
2733.38 0.117693
2734.21 0.115366
2735.05 0.109557
2735.88 0.123655
2736.71 0.119151
2737.55 0.111497
2738.38 0.111558
2739.21 0.122895
2740.04 0.130649
2740.87 0.120584
2741.7 0.109689
2742.53 0.115845
2743.36 0.114013
2744.19 0.122049
2745.02 0.113191
2745.84 0.118283
2746.67 0.122384
2747.5 0.121647
2748.32 0.112456
2749.15 0.115552
2749.97 0.113343
2750.79 0.120651
2751.62 0.118385
2752.44 0.125512
2753.26 0.117155
2754.08 0.115943
2754.9 0.117766
2755.72 0.114813
2756.54 0.119491
2757.36 0.116303
2758.17 0.119843
2758.99 0.115254
2759.81 0.11646
2760.62 0.117069
2761.44 0.123143
2762.25 0.11185
2763.07 0.120981
2763.88 0.122807
2764.7 0.105245
2765.51 0.115852
2766.32 0.121155
2767.13 0.123907
2767.94 0.11793
2768.75 0.111198
2769.56 0.111687
2770.37 0.11259
2771.18 0.114722
2771.98 0.113365
2772.79 0.109866
2773.6 0.113449
2774.4 0.110535
2775.21 0.108745
2776.01 0.125349
2776.82 0.105253
2777.62 0.122256
2778.42 0.113924
2779.22 0.110862
2780.03 0.113135
2780.83 0.122787
2781.63 0.131915
2782.43 0.112153
2783.23 0.119472
2784.02 0.114278
2784.82 0.115698
2785.62 0.107985
2786.42 0.123079
2787.21 0.105046
2788.01 0.115347
2788.8 0.123381
2789.6 0.108663
2790.39 0.105358
2791.18 0.114439
2791.97 0.111772
2792.77 0.111551
2793.56 0.108473
2794.35 0.119502
2795.14 0.121671
2795.93 0.114241
2796.71 0.116516
2797.5 0.117764
2798.29 0.105984
2799.08 0.11563
2799.86 0.105536
2800.65 0.105414
2801.43 0.106882
2802.22 0.113075
2803 0.114618
2803.78 0.109105
2804.57 0.11392
2805.35 0.103995
2806.13 0.120022
2806.91 0.120945
2807.69 0.112587
2808.47 0.114806
2809.25 0.107836
2810.03 0.107021
2810.81 0.110357
2811.58 0.117784
2812.36 0.109467
2813.13 0.105253
2813.91 0.113365
2814.68 0.108959
2815.46 0.115706
2816.23 0.110283
2817 0.117628
2817.78 0.118431
2818.55 0.110772
2819.32 0.115835
2820.09 0.118815
2820.86 0.0975381
2821.63 0.109989
2822.4 0.116851
2823.16 0.109117
2823.93 0.11689
2824.7 0.118995
2825.46 0.113793
2826.23 0.12148
2826.99 0.125555
2827.76 0.106783
2828.52 0.126194
2829.28 0.111116
2830.05 0.101996
2830.81 0.122639
2831.57 0.10556
2832.33 0.115674
2833.09 0.112287
2833.85 0.107389
2834.61 0.114745
2835.37 0.112505
2836.12 0.104599
2836.88 0.110406
2837.64 0.103974
2838.39 0.110991
2839.15 0.125269
2839.9 0.110555
2840.65 0.106143
2841.41 0.106459
2842.16 0.116641
2842.91 0.112365
2843.66 0.109608
2844.41 0.119779
2845.16 0.111389
2845.91 0.126444
2846.66 0.122237
2847.41 0.115715
2848.16 0.124527
2848.91 0.118164
2849.65 0.101241
2850.4 0.108635
2851.14 0.109059
2851.89 0.119588
2852.63 0.103546
2853.37 0.115469
2854.12 0.109119
2854.86 0.106107
2855.6 0.114377
2856.34 0.118021
2857.08 0.107675
2857.82 0.117194
2858.56 0.102493
2859.3 0.126974
2860.04 0.111107
2860.77 0.118795
2861.51 0.115242
2862.24 0.119978
2862.98 0.115143
2863.71 0.112958
2864.45 0.112448
2865.18 0.115132
2865.91 0.112834
2866.65 0.120344
2867.38 0.112079
2868.11 0.114132
2868.84 0.119951
2869.57 0.120365
2870.3 0.117286
2871.03 0.120032
2871.75 0.112475
2872.48 0.118101
2873.21 0.105951
2873.93 0.109498
2874.66 0.0993509
2875.38 0.0838855
2876.11 0.0842181
2876.83 0.0913354
2877.55 0.079711
2878.28 0.085065
2879 0.0728573
2879.72 0.101535
2880.44 0.0950084
2881.16 0.0986697
2881.88 0.0958222
2882.6 0.118801
2883.31 0.105475
2884.03 0.118065
2884.75 0.113449
2885.46 0.118309
2886.18 0.103076
2886.89 0.110146
2887.61 0.127487
2888.32 0.103993
2889.03 0.123357
2889.75 0.123642
2890.46 0.106731
2891.17 0.123042
2891.88 0.113747
2892.59 0.127416
2893.3 0.123702
2894.01 0.111636
2894.71 0.115343
2895.42 0.125222
2896.13 0.122763
2896.83 0.120047
2897.54 0.12655
2898.24 0.113062
2898.95 0.119498
2899.65 0.12191
2900.35 0.128837
2901.06 0.111337
2901.76 0.131889
2902.46 0.1191
2903.16 0.12261
2903.86 0.118946
2904.56 0.125027
2905.25 0.117886
spectrumdark 2048
-91.2478 1922
-88.6498 1946
-86.0534 1895
-83.4589 1946
-80.8659 1826
-78.2748 1825
-75.6853 1868
-73.0974 1867
-70.5114 1841
-67.927 1829
-65.3443 1851
-62.7633 1885
-60.1841 1882
-57.6064 1898
-55.0305 1850
-52.4563 1891
-49.8838 1854
-47.3131 1876
-44.7439 1905
-42.1765 1816
-39.6107 1919
-37.0466 1844
-34.4843 1832
-31.9235 1851
-29.3645 1844
-26.8071 1855
-24.2516 1876
-21.6976 1840
-19.1452 1846
-16.5946 1849
-14.0456 1854
-11.4984 1865
-8.95279 1881
-6.40894 1860
-3.86666 1859
-1.326 1873
1.21284 1882
3.75018 1850
6.28568 1872
8.81962 1895
11.3519 1910
13.8825 1901
16.4115 1864
18.9387 1900
21.4643 1858
23.9883 1860
26.5106 1875
29.0313 1873
31.5503 1836
34.0676 1920
36.5833 1901
39.0974 1863
41.6097 1915
44.1205 1892
46.6296 1869
49.1371 1882
51.6429 1882
54.147 1883
56.6496 1869
59.1505 1854
61.6497 1897
64.1473 1840
66.6433 1855
69.1377 1854
71.6304 1860
74.1214 1910
76.6108 1856
79.0987 1875
81.5848 1829
84.0694 1925
86.5523 1880
89.0336 1865
91.5133 1875
93.9913 1875
96.4678 1866
98.9425 1909
101.416 1903
103.887 1886
106.357 1870
108.826 1857
111.292 1851
113.757 1831
116.221 1893
118.683 1893
121.143 1898
123.602 1879
126.059 1934
128.514 1894
130.968 1914
133.42 2029
135.871 2031
138.32 2109
140.767 2229
143.213 2265
145.657 2311
148.1 2346
150.541 2419
152.98 2363
155.418 2414
157.855 2466
160.289 2453
162.722 2430
165.154 2391
167.584 2372
170.012 2440
172.439 2423
174.864 2440
177.287 2430
179.709 2425
182.13 2445
184.548 2642
186.966 2636
189.381 2672
191.795 2859
194.208 2806
196.619 2864
199.028 2897
201.436 3056
203.842 3014
206.247 2985
208.65 2977
211.051 2982
213.451 3005
215.85 3028
218.246 3007
220.642 3003
223.035 2969
225.427 3035
227.818 3024
230.207 2982
232.594 2935
234.98 3047
237.364 2867
239.747 2941
242.128 2905
244.508 2958
246.886 2978
249.263 2994
251.638 2958
254.011 2939
256.383 2945
258.754 2888
261.123 2984
263.49 3036
265.856 2982
268.22 2946
270.582 3001
272.944 2952
275.303 2965
277.661 2869
280.018 2928
282.373 2939
284.726 2909
287.078 2939
289.429 2978
291.777 2977
294.125 2947
296.471 2958
298.815 2951
301.158 3069
303.499 2959
305.839 3074
308.177 2932
310.514 2918
312.849 3202
315.182 2962
317.514 2985
319.845 2957
322.174 2977
324.502 2992
326.828 3072
329.152 3083
331.476 3223
333.797 3226
336.117 3209
338.436 3096
340.753 3018
343.068 3003
345.382 3076
347.695 2935
350.006 2977
352.315 2960
354.623 3142
356.93 2965
359.235 3022
361.538 3034
363.84 2980
366.141 3025
368.44 2959
370.738 2905
373.034 2948
375.328 2933
377.621 2899
379.913 2958
382.203 2974
384.492 2932
386.779 2886
389.064 2954
391.349 2937
393.631 2964
395.913 3081
398.192 3436
400.471 3780
402.748 3878
405.023 3664
407.297 3418
409.569 3649
411.84 5089
414.11 6104
416.377 6240
418.644 5480
420.909 3903
423.173 3262
425.435 2968
427.695 2873
429.955 2849
432.212 2866
434.469 2829
436.723 2836
438.977 2867
441.229 2830
443.479 2765
445.728 2690
447.976 2680
450.222 2754
452.466 2780
454.709 2755
456.951 2673
459.191 2637
461.43 2668
463.668 2716
465.904 2607
468.138 2662
470.371 2659
472.603 2612
474.833 2593
477.062 2687
479.289 2657
481.515 2690
483.739 2673
485.962 2703
488.184 2591
490.404 2539
492.623 2504
494.84 2575
497.056 2618
499.27 2606
501.483 2602
503.694 2673
505.905 2767
508.113 2749
510.321 2653
512.526 2585
514.731 2487
516.934 2610
519.135 2626
521.336 2687
523.534 2727
525.732 2774
527.928 3088
530.122 3217
532.315 3210
534.507 3166
536.697 2840
538.886 2668
541.073 2626
543.259 2632
545.444 2592
547.627 2685
549.809 2824
551.989 2853
554.169 2816
556.346 2825
558.522 2787
560.697 2800
562.871 2723
565.043 2745
567.213 2786
569.382 2783
571.55 2720
573.717 2751
575.882 2755
578.045 2656
580.208 2674
582.369 2660
584.528 2442
586.686 2407
588.843 2333
590.998 2329
593.152 2404
595.305 2512
597.456 2578
599.606 2691
601.754 2710
603.901 2737
606.047 2729
608.191 2749
610.334 2695
612.476 2713
614.616 2754
616.755 2799
618.892 2835
621.028 2807
623.163 2759
625.296 2732
627.428 2691
629.559 2731
631.688 2699
633.816 2802
635.942 3200
638.067 3286
640.191 3374
642.313 3402
644.434 3040
646.554 2813
648.673 2777
650.79 2721
652.905 2705
655.019 2584
657.132 2571
659.244 2651
661.354 2670
663.463 2815
665.57 2841
667.677 2835
669.781 2851
671.885 2765
673.987 2691
676.088 2611
678.187 2678
680.285 2635
682.382 2683
684.478 2822
686.572 3234
688.664 3616
690.756 3731
692.846 3587
694.935 3169
697.022 2812
699.108 2661
701.193 2675
703.276 2638
705.358 2723
707.439 2852
709.519 2638
711.597 2659
713.673 2689
715.749 2682
717.823 2665
719.896 2649
721.967 2614
724.037 2607
726.106 2693
728.174 2730
730.24 2742
732.305 2701
734.368 2762
736.431 2719
738.492 2608
740.551 2681
742.61 2911
744.667 2696
746.722 2703
748.777 2640
750.83 2718
752.882 2687
754.932 2873
756.981 2758
759.029 2752
761.075 2696
763.121 2730
765.165 2742
767.207 2737
769.249 2728
771.289 2736
773.327 2744
775.365 2880
777.401 2726
779.436 2677
781.47 2797
783.502 2732
785.533 2676
787.563 2689
789.591 2751
791.618 2722
793.644 2729
795.668 2776
797.692 2738
799.714 2754
801.734 2673
803.754 2726
805.772 2804
807.789 2828
809.804 2777
811.819 2715
813.832 2793
815.843 2740
817.854 2693
819.863 2826
821.871 2727
823.878 2778
825.883 2761
827.887 2734
829.89 2768
831.892 2727
833.892 2749
835.891 2795
837.889 2809
839.885 2769
841.88 2838
843.874 2819
845.867 2926
847.858 2839
849.849 2826
851.838 2832
853.825 2806
855.812 2745
857.797 2695
859.781 2724
861.763 2753
863.745 2713
865.725 2819
867.704 2855
869.681 2836
871.658 2843
873.633 2842
875.607 2770
877.579 2830
879.551 2765
881.521 2778
883.49 2716
885.458 2697
887.424 2984
889.389 2710
891.353 2664
893.316 2680
895.277 2743
897.237 2748
899.196 2709
901.154 2704
903.111 2765
905.066 2731
907.02 2764
908.973 2762
910.924 2693
912.875 2718
914.824 2722
916.772 2753
918.718 2677
920.664 2870
922.608 2688
924.551 2716
926.493 2751
928.433 2694
930.373 2685
932.311 2680
934.248 2716
936.183 2706
938.118 2757
940.051 2703
941.983 2729
943.914 2669
945.843 2728
947.772 2711
949.699 2998
951.625 2674
953.549 2731
955.473 2781
957.395 2687
959.316 2685
961.236 2716
963.155 2710
965.072 2707
966.989 2686
968.904 2655
970.818 2644
972.73 2565
974.642 2551
976.552 2621
978.461 2623
980.369 2684
982.276 2650
984.181 2734
986.085 2842
987.988 2966
989.89 2976
991.791 2852
993.69 2733
995.589 2696
997.486 2613
999.382 2680
1001.28 2656
1003.17 2683
1005.06 2724
1006.95 2770
1008.84 2660
1010.73 2717
1012.62 2654
1014.51 2701
1016.39 2745
1018.28 2657
1020.16 2679
1022.04 2725
1023.92 2647
1025.8 2583
1027.68 2590
1029.56 2554
1031.43 2458
1033.31 2435
1035.18 2395
1037.05 2481
1038.92 2500
1040.79 2521
1042.66 2634
1044.53 2602
1046.4 2726
1048.26 2629
1050.13 2614
1051.99 2617
1053.85 2656
1055.71 2617
1057.57 2611
1059.43 2629
1061.29 2603
1063.14 2693
1065 2699
1066.85 2767
1068.7 2615
1070.56 2607
1072.41 2567
1074.26 2618
1076.1 2722
1077.95 2638
1079.8 2626
1081.64 2650
1083.48 2716
1085.33 2673
1087.17 2644
1089.01 2633
1090.85 2640
1092.68 2621
1094.52 2679
1096.35 2613
1098.19 2639
1100.02 2652
1101.85 2675
1103.68 2647
1105.51 2698
1107.34 2671
1109.17 2629
1111 2594
1112.82 2631
1114.64 2649
1116.47 2758
1118.29 2571
1120.11 2612
1121.93 2771
1123.75 2638
1125.56 2585
1127.38 2610
1129.2 2613
1131.01 2643
1132.82 2637
1134.63 2607
1136.44 2644
1138.25 2631
1140.06 2619
1141.87 2610
1143.67 2695
1145.48 2652
1147.28 2602
1149.08 2603
1150.89 2653
1152.69 2778
1154.49 2661
1156.28 2640
1158.08 2566
1159.88 2603
1161.67 2633
1163.46 2574
1165.26 2568
1167.05 2633
1168.84 2603
1170.63 2578
1172.42 2596
1174.2 2593
1175.99 2606
1177.77 2582
1179.56 2561
1181.34 2609
1183.12 2646
1184.9 2589
1186.68 2588
1188.46 2642
1190.24 2502
1192.01 2529
1193.79 2438
1195.56 2416
1197.33 2352
1199.1 2460
1200.87 2519
1202.64 2513
1204.41 2532
1206.18 2545
1207.95 2564
1209.71 2559
1211.47 2575
1213.24 2780
1215 2626
1216.76 2540
1218.52 2578
1220.28 2571
1222.04 2533
1223.79 2612
1225.55 2541
1227.3 2580
1229.05 2558
1230.81 2578
1232.56 2553
1234.31 2547
1236.05 2520
1237.8 2524
1239.55 2536
1241.29 2543
1243.04 2555
1244.78 2624
1246.52 2533
1248.27 2600
1250.01 2626
1251.75 2554
1253.48 2568
1255.22 2554
1256.96 2501
1258.69 2545
1260.42 2525
1262.16 2560
1263.89 2541
1265.62 2575
1267.35 2531
1269.08 2495
1270.8 2580
1272.53 2542
1274.26 2542
1275.98 2554
1277.7 2550
1279.42 2549
1281.15 2553
1282.87 2501
1284.58 2513
1286.3 2485
1288.02 2510
1289.73 2583
1291.45 2526
1293.16 2559
1294.88 2518
1296.59 2537
1298.3 2506
1300.01 2472
1301.71 2495
1303.42 2540
1305.13 2567
1306.83 2521
1308.54 2528
1310.24 2515
1311.94 2505
1313.64 2519
1315.34 2482
1317.04 2512
1318.74 2506
1320.44 2495
1322.13 2502
1323.83 2536
1325.52 2513
1327.21 2536
1328.91 2606
1330.6 2512
1332.29 2548
1333.98 2527
1335.66 2524
1337.35 2533
1339.03 2561
1340.72 2529
1342.4 2674
1344.08 3129
1345.77 3442
1347.45 3590
1349.13 3555
1350.8 3157
1352.48 2806
1354.16 2589
1355.83 2537
1357.51 2535
1359.18 2578
1360.85 2532
1362.52 2511
1364.19 2503
1365.86 2535
1367.53 2437
1369.2 2540
1370.86 2442
1372.53 2486
1374.19 2495
1375.86 2482
1377.52 2517
1379.18 2493
1380.84 2448
1382.5 2491
1384.15 2420
1385.81 2422
1387.47 2486
1389.12 2425
1390.78 2414
1392.43 2420
1394.08 2516
1395.73 2440
1397.38 2442
1399.03 2492
1400.68 2409
1402.33 2481
1403.97 2508
1405.62 2421
1407.26 2425
1408.9 2498
1410.54 2458
1412.19 2520
1413.83 2499
1415.46 2418
1417.1 2477
1418.74 2457
1420.37 2456
1422.01 2506
1423.64 2433
1425.28 2427
1426.91 2495
1428.54 2476
1430.17 2449
1431.8 2454
1433.43 2475
1435.05 2482
1436.68 2481
1438.3 2482
1439.93 2453
1441.55 2479
1443.17 2436
1444.79 2406
1446.41 2493
1448.03 2474
1449.65 2455
1451.27 2440
1452.88 2493
1454.5 2435
1456.11 2425
1457.73 2427
1459.34 2385
1460.95 2438
1462.56 2474
1464.17 2371
1465.78 2398
1467.39 2462
1468.99 2420
1470.6 2420
1472.2 2487
1473.81 2400
1475.41 2437
1477.01 2385
1478.61 2405
1480.21 2411
1481.81 2389
1483.41 2386
1485 2558
1486.6 2431
1488.19 2475
1489.79 2446
1491.38 2424
1492.97 2413
1494.56 2414
1496.15 2434
1497.74 2417
1499.33 2388
1500.92 2443
1502.5 2412
1504.09 2560
1505.67 2378
1507.25 2417
1508.84 2439
1510.42 2385
1512 2381
1513.58 2408
1515.16 2399
1516.73 2399
1518.31 2422
1519.89 2387
1521.46 2345
1523.03 2391
1524.61 2370
1526.18 2341
1527.75 2355
1529.32 2351
1530.89 2338
1532.46 2425
1534.02 2398
1535.59 2371
1537.16 2643
1538.72 2909
1540.28 3071
1541.85 3084
1543.41 2982
1544.97 2718
1546.53 2530
1548.09 2362
1549.64 2348
1551.2 2328
1552.76 2357
1554.31 2284
1555.86 2300
1557.42 2308
1558.97 2248
1560.52 2330
1562.07 2316
1563.62 2329
1565.17 2272
1566.72 2288
1568.26 2241
1569.81 2245
1571.35 2230
1572.9 2224
1574.44 2241
1575.98 2246
1577.52 2258
1579.06 2265
1580.6 2257
1582.14 2155
1583.68 2212
1585.21 2164
1586.75 2166
1588.28 2239
1589.82 2283
1591.35 2252
1592.88 2248
1594.41 2228
1595.94 2159
1597.47 2147
1599 2193
1600.53 2184
1602.05 2221
1603.58 2218
1605.1 2247
1606.62 2239
1608.15 2204
1609.67 2202
1611.19 2184
1612.71 2186
1614.23 2159
1615.75 2057
1617.26 2084
1618.78 2057
1620.29 2101
1621.81 2187
1623.32 2162
1624.84 2260
1626.35 2219
1627.86 2194
1629.37 2215
1630.88 2180
1632.38 2149
1633.89 2183
1635.4 2176
1636.9 2131
1638.41 2140
1639.91 2318
1641.41 2182
1642.92 2148
1644.42 2238
1645.92 2189
1647.42 2181
1648.91 2181
1650.41 2136
1651.91 2193
1653.4 2167
1654.9 2163
1656.39 2243
1657.88 2161
1659.38 2163
1660.87 2198
1662.36 2110
1663.85 2227
1665.34 2219
1666.82 2194
1668.31 2232
1669.79 2237
1671.28 2238
1672.76 2283
1674.25 2261
1675.73 2309
1677.21 2266
1678.69 2292
1680.17 2222
1681.65 2247
1683.13 2190
1684.6 2216
1686.08 2229
1687.55 2261
1689.03 2254
1690.5 2261
1691.97 2237
1693.45 2286
1694.92 2175
1696.39 2237
1697.86 2251
1699.32 2270
1700.79 2201
1702.26 2207
1703.72 2171
1705.19 2118
1706.65 2129
1708.11 2134
1709.58 2186
1711.04 2231
1712.5 2228
1713.96 2119
1715.42 2132
1716.87 2069
1718.33 2103
1719.79 2153
1721.24 2182
1722.7 2181
1724.15 2179
1725.6 2159
1727.05 2115
1728.5 2077
1729.95 2102
1731.4 2179
1732.85 2167
1734.3 2122
1735.75 2106
1737.19 2113
1738.64 2134
1740.08 2122
1741.52 2120
1742.96 2120
1744.41 2099
1745.85 2141
1747.29 2172
1748.72 2120
1750.16 2081
1751.6 2087
1753.04 2194
1754.47 2133
1755.91 2129
1757.34 2123
1758.77 2111
1760.2 2105
1761.64 2143
1763.07 2119
1764.5 2203
1765.92 2126
1767.35 2191
1768.78 2147
1770.2 2203
1771.63 2138
1773.05 2085
1774.48 2154
1775.9 2123
1777.32 2218
1778.74 2189
1780.16 2211
1781.58 2200
1783 2166
1784.42 2144
1785.84 2086
1787.25 2042
1788.67 2121
1790.08 2128
1791.49 2056
1792.91 2069
1794.32 2072
1795.73 2034
1797.14 2101
1798.55 2140
1799.96 2118
1801.37 2156
1802.77 2164
1804.18 2198
1805.58 2200
1806.99 2141
1808.39 2160
1809.79 2121
1811.2 2149
1812.6 2101
1814 2099
1815.4 2037
1816.79 2010
1818.19 2094
1819.59 2062
1820.98 2067
1822.38 2135
1823.77 2104
1825.17 2064
1826.56 2140
1827.95 2134
1829.34 2143
1830.73 2197
1832.12 2164
1833.51 2128
1834.9 2124
1836.29 2127
1837.67 2047
1839.06 2097
1840.44 2060
1841.83 1997
1843.21 2030
1844.59 2046
1845.97 2055
1847.35 2108
1848.73 2086
1850.11 2105
1851.49 2125
1852.87 2111
1854.24 2080
1855.62 2105
1856.99 2123
1858.37 2139
1859.74 2158
1861.11 2124
1862.48 2166
1863.85 2106
1865.22 2090
1866.59 2149
1867.96 2101
1869.33 2113
1870.7 2105
1872.06 2117
1873.43 2187
1874.79 2210
1876.16 2175
1877.52 2174
1878.88 2227
1880.24 2139
1881.6 2137
1882.96 2082
1884.32 2105
1885.68 2091
1887.03 2086
1888.39 2158
1889.75 2097
1891.1 2146
1892.45 2122
1893.81 2168
1895.16 2157
1896.51 2143
1897.86 2117
1899.21 2124
1900.56 2157
1901.91 2135
1903.26 2174
1904.6 2131
1905.95 2121
1907.29 2106
1908.64 2110
1909.98 2081
1911.33 2071
1912.67 2114
1914.01 2069
1915.35 2077
1916.69 2147
1918.03 2107
1919.37 2129
1920.7 2134
1922.04 2094
1923.38 2087
1924.71 2091
1926.04 2095
1927.38 2148
1928.71 2129
1930.04 2063
1931.37 2146
1932.7 2126
1934.03 2117
1935.36 2134
1936.69 2103
1938.02 2153
1939.34 2128
1940.67 2070
1941.99 2072
1943.32 2090
1944.64 2126
1945.96 2137
1947.28 2088
1948.6 2108
1949.92 2105
1951.24 2180
1952.56 2202
1953.88 2080
1955.2 2105
1956.51 2074
1957.83 2072
1959.14 2073
1960.46 2037
1961.77 1994
1963.08 2053
1964.39 2068
1965.71 2015
1967.02 2019
1968.33 2053
1969.63 2055
1970.94 2041
1972.25 2050
1973.55 1986
1974.86 2046
1976.16 1995
1977.47 2047
1978.77 2080
1980.07 2028
1981.38 2036
1982.68 2034
1983.98 2011
1985.28 1985
1986.57 1969
1987.87 1993
1989.17 1988
1990.47 1970
1991.76 2011
1993.06 2014
1994.35 1979
1995.64 1997
1996.94 1949
1998.23 2015
1999.52 1977
2000.81 1967
2002.1 2023
2003.39 2011
2004.68 1954
2005.96 1938
2007.25 1930
2008.53 1890
2009.82 1954
2011.1 1981
2012.39 1937
2013.67 1917
2014.95 1948
2016.23 2009
2017.51 1931
2018.79 1926
2020.07 1979
2021.35 1936
2022.63 1995
2023.9 1951
2025.18 1953
2026.46 1899
2027.73 1905
2029 1939
2030.28 1931
2031.55 1911
2032.82 1919
2034.09 1991
2035.36 1931
2036.63 1958
2037.9 1910
2039.17 1906
2040.43 1875
2041.7 1951
2042.96 1984
2044.23 1945
2045.49 1985
2046.76 1999
2048.02 2007
2049.28 1933
2050.54 1878
2051.8 1935
2053.06 1914
2054.32 1914
2055.58 1951
2056.84 2004
2058.09 1946
2059.35 1957
2060.6 1928
2061.86 1962
2063.11 1941
2064.37 1928
2065.62 1882
2066.87 1945
2068.12 1913
2069.37 1903
2070.62 1904
2071.87 1961
2073.12 1927
2074.36 1951
2075.61 1927
2076.85 1925
2078.1 1943
2079.34 1947
2080.59 1911
2081.83 1926
2083.07 1943
2084.31 1914
2085.55 1967
2086.79 1927
2088.03 1917
2089.27 1994
2090.51 1961
2091.74 1974
2092.98 2027
2094.22 1999
2095.45 2045
2096.69 2018
2097.92 2033
2099.15 1983
2100.38 1990
2101.61 1958
2102.84 1985
2104.07 1950
2105.3 1954
2106.53 1929
2107.76 1964
2108.99 1950
2110.21 1941
2111.44 1944
2112.66 1955
2113.89 1961
2115.11 1965
2116.33 2151
2117.55 1941
2118.77 1979
2119.99 1998
2121.21 1943
2122.43 2006
2123.65 1938
2124.87 1971
2126.08 1932
2127.3 1963
2128.52 1981
2129.73 2004
2130.94 1966
2132.16 1928
2133.37 1950
2134.58 1955
2135.79 1909
2137 1940
2138.21 1948
2139.42 1980
2140.63 1950
2141.84 1927
2143.04 1976
2144.25 2004
2145.46 1973
2146.66 1884
2147.86 1902
2149.07 1949
2150.27 1937
2151.47 1914
2152.67 1948
2153.87 1920
2155.07 1914
2156.27 2035
2157.47 1928
2158.67 1976
2159.86 2056
2161.06 1961
2162.26 1995
2163.45 1909
2164.64 1929
2165.84 1905
2167.03 1890
2168.22 1926
2169.41 1966
2170.6 1979
2171.79 1910
2172.98 1981
2174.17 2176
2175.36 1960
2176.55 1950
2177.73 1989
2178.92 1962
2180.1 1936
2181.29 1996
2182.47 1961
2183.65 1979
2184.84 1977
2186.02 1949
2187.2 1960
2188.38 1926
2189.56 1926
2190.74 1986
2191.91 1974
2193.09 1960
2194.27 1956
2195.44 1928
2196.62 1941
2197.79 1989
2198.97 2025
2200.14 2001
2201.31 2000
2202.49 1967
2203.66 1962
2204.83 2003
2206 2038
2207.17 1952
2208.33 1946
2209.5 1941
2210.67 1903
2211.83 1948
2213 1909
2214.16 1921
2215.33 1958
2216.49 1894
2217.66 1936
2218.82 1979
2219.98 1951
2221.14 1989
2222.3 1992
2223.46 1980
2224.62 2002
2225.78 2018
2226.93 2030
2228.09 1984
2229.25 1936
2230.4 2025
2231.56 1928
2232.71 1965
2233.86 1953
2235.02 1897
2236.17 1926
2237.32 1928
2238.47 1903
2239.62 1894
2240.77 1923
2241.92 1869
2243.06 1964
2244.21 1902
2245.36 1936
2246.5 1915
2247.65 1954
2248.79 1988
2249.94 1981
2251.08 1993
2252.22 1991
2253.36 1952
2254.5 1984
2255.64 1946
2256.78 1963
2257.92 1943
2259.06 2020
2260.2 1992
2261.34 1933
2262.47 1946
2263.61 1910
2264.74 1920
2265.88 1941
2267.01 1938
2268.14 1933
2269.28 1945
2270.41 1956
2271.54 1974
2272.67 1952
2273.8 1907
2274.93 1958
2276.06 1965
2277.18 1936
2278.31 1920
2279.44 1967
2280.56 1956
2281.69 1987
2282.81 1968
2283.93 1945
2285.06 1947
2286.18 1908
2287.3 1954
2288.42 1920
2289.54 1914
2290.66 1939
2291.78 1937
2292.9 1929
2294.02 1993
2295.13 2012
2296.25 1979
2297.36 1947
2298.48 2043
2299.59 2002
2300.71 2008
2301.82 2047
2302.93 1943
2304.04 1906
2305.15 2008
2306.26 1964
2307.37 1954
2308.48 2007
2309.59 1952
2310.7 1981
2311.81 1941
2312.91 1912
2314.02 1902
2315.12 1928
2316.23 1939
2317.33 1951
2318.43 1916
2319.53 1993
2320.64 1997
2321.74 1946
2322.84 1946
2323.94 1949
2325.04 1938
2326.13 1966
2327.23 1980
2328.33 1981
2329.43 1910
2330.52 1924
2331.62 1948
2332.71 1949
2333.8 1963
2334.9 1981
2335.99 1933
2337.08 1916
2338.17 1959
2339.26 2007
2340.35 1959
2341.44 1982
2342.53 1936
2343.62 1959
2344.71 1954
2345.79 1971
2346.88 1953
2347.96 2008
2349.05 1938
2350.13 2012
2351.22 1930
2352.3 1943
2353.38 1973
2354.46 1973
2355.54 1941
2356.62 1936
2357.7 2002
2358.78 1986
2359.86 1970
2360.93 2010
2362.01 2008
2363.09 1988
2364.16 1977
2365.24 1972
2366.31 1980
2367.39 1957
2368.46 1937
2369.53 1987
2370.6 1969
2371.67 1960
2372.74 1987
2373.81 1967
2374.88 1951
2375.95 1990
2377.02 1980
2378.09 2046
2379.15 2034
2380.22 1938
2381.28 1976
2382.35 1968
2383.41 1965
2384.47 1989
2385.54 1933
2386.6 1992
2387.66 1940
2388.72 1994
2389.78 1995
2390.84 2010
2391.9 1921
2392.96 2000
2394.01 1952
2395.07 1955
2396.13 2036
2397.18 1986
2398.24 1988
2399.29 1960
2400.34 2030
2401.4 1976
2402.45 1973
2403.5 1969
2404.55 2021
2405.6 2040
2406.65 2004
2407.7 2058
2408.75 2019
2409.8 2010
2410.84 2008
2411.89 2025
2412.94 2029
2413.98 2019
2415.03 2056
2416.07 2033
2417.11 2038
2418.16 2002
2419.2 2006
2420.24 1985
2421.28 2006
2422.32 2033
2423.36 1988
2424.4 2061
2425.44 1998
2426.48 2009
2427.51 2322
2428.55 2020
2429.58 2007
2430.62 2016
2431.65 1943
2432.69 2064
2433.72 2017
2434.75 1995
2435.78 1961
2436.82 1978
2437.85 2001
2438.88 2007
2439.91 1994
2440.93 1966
2441.96 2021
2442.99 1983
2444.02 2019
2445.04 2056
2446.07 2045
2447.09 2038
2448.12 1998
2449.14 2030
2450.16 1984
2451.19 2039
2452.21 2028
2453.23 2021
2454.25 1976
2455.27 2048
2456.29 1966
2457.31 2076
2458.33 2003
2459.34 1956
2460.36 1980
2461.38 1981
2462.39 2009
2463.41 1986
2464.42 1961
2465.43 1964
2466.45 1971
2467.46 1955
2468.47 2040
2469.48 1947
2470.49 2016
2471.5 1994
2472.51 1962
2473.52 1985
2474.53 1951
2475.54 1953
2476.54 1989
2477.55 1920
2478.55 2007
2479.56 1994
2480.56 1967
2481.57 2002
2482.57 2037
2483.57 1971
2484.57 2049
2485.57 2070
2486.57 2021
2487.57 1979
2488.57 2043
2489.57 2027
2490.57 2000
2491.57 2015
2492.56 1979
2493.56 2015
2494.55 2055
2495.55 1972
2496.54 1994
2497.54 1950
2498.53 1986
2499.52 2030
2500.51 1924
2501.51 1932
2502.5 2029
2503.49 1988
2504.47 2017
2505.46 1969
2506.45 2053
2507.44 1999
2508.43 2013
2509.41 2035
2510.4 1950
2511.38 1967
2512.37 2003
2513.35 2046
2514.33 1987
2515.32 1980
2516.3 1982
2517.28 1979
2518.26 2008
2519.24 2006
2520.22 1952
2521.2 2025
2522.17 2003
2523.15 2077
2524.13 1960
2525.1 1960
2526.08 1950
2527.05 2010
2528.03 1983
2529 1972
2529.98 2068
2530.95 2029
2531.92 1944
2532.89 1970
2533.86 1969
2534.83 1977
2535.8 2046
2536.77 1973
2537.74 2000
2538.71 2022
2539.67 1966
2540.64 1973
2541.6 1990
2542.57 1953
2543.53 2040
2544.5 2013
2545.46 1983
2546.42 1984
2547.39 1987
2548.35 1984
2549.31 2019
2550.27 2034
2551.23 1953
2552.19 2011
2553.14 2021
2554.1 2090
2555.06 2005
2556.02 1998
2556.97 1959
2557.93 2019
2558.88 2052
2559.84 1966
2560.79 1973
2561.74 2047
2562.69 1967
2563.64 2012
2564.6 2029
2565.55 1962
2566.5 1966
2567.44 2018
2568.39 1952
2569.34 2070
2570.29 2041
2571.24 1948
2572.18 2021
2573.13 2233
2574.07 2005
2575.02 1995
2575.96 2085
2576.9 2003
2577.84 1990
2578.79 2043
2579.73 2038
2580.67 1966
2581.61 1991
2582.55 2001
2583.49 2007
2584.42 1969
2585.36 1957
2586.3 1987
2587.23 2002
2588.17 1983
2589.1 1986
2590.04 1975
2590.97 1982
2591.9 1985
2592.84 2078
2593.77 1960
2594.7 2010
2595.63 2040
2596.56 1954
2597.49 2004
2598.42 2008
2599.35 2016
2600.28 2024
2601.2 1993
2602.13 1984
2603.06 2189
2603.98 1992
2604.9 1988
2605.83 1983
2606.75 2008
2607.67 1986
2608.6 2017
2609.52 2024
2610.44 1923
2611.36 1953
2612.28 1969
2613.2 1991
2614.12 2040
2615.04 2023
2615.95 2018
2616.87 2003
2617.79 2014
2618.7 1941
2619.62 1998
2620.53 1985
2621.44 1994
2622.36 1993
2623.27 1994
2624.18 1976
2625.09 2014
2626 1980
2626.91 2003
2627.82 1973
2628.73 1960
2629.64 1984
2630.55 2008
2631.45 1978
2632.36 2023
2633.26 1988
2634.17 2040
2635.07 1965
2635.98 1988
2636.88 2027
2637.78 2009
2638.69 1953
2639.59 2071
2640.49 2080
2641.39 2019
2642.29 2042
2643.19 1974
2644.09 2014
2644.98 2040
2645.88 2007
2646.78 2005
2647.67 2057
2648.57 2024
2649.46 2017
2650.36 2051
2651.25 1983
2652.14 2026
2653.04 2172
2653.93 1954
2654.82 2018
2655.71 1975
2656.6 2009
2657.49 2048
2658.38 2008
2659.27 1985
2660.15 1966
2661.04 1994
2661.93 2029
2662.81 1957
2663.7 2002
2664.58 2012
2665.47 1944
2666.35 1995
2667.23 2063
2668.11 1948
2669 2029
2669.88 2017
2670.76 1959
2671.64 1983
2672.52 2013
2673.39 1987
2674.27 1982
2675.15 1986
2676.03 1946
2676.9 1983
2677.78 1950
2678.65 1980
2679.53 1960
2680.4 1969
2681.27 2006
2682.14 2033
2683.02 1968
2683.89 2004
2684.76 2059
2685.63 2005
2686.5 2047
2687.37 1976
2688.23 1941
2689.1 1995
2689.97 1995
2690.83 1963
2691.7 1965
2692.56 1967
2693.43 1991
2694.29 1979
2695.16 1979
2696.02 1962
2696.88 1990
2697.74 1970
2698.6 1966
2699.46 1983
2700.32 1985
2701.18 2025
2702.04 1973
2702.9 2008
2703.76 1955
2704.61 1994
2705.47 1999
2706.32 1951
2707.18 1968
2708.03 1975
2708.89 1924
2709.74 2006
2710.59 1991
2711.44 1960
2712.29 1950
2713.15 1993
2713.99 1988
2714.84 1970
2715.69 1993
2716.54 1988
2717.39 1923
2718.24 2012
2719.08 1933
2719.93 1990
2720.77 2000
2721.62 1963
2722.46 1992
2723.3 1978
2724.15 1980
2724.99 2060
2725.83 1975
2726.67 2004
2727.51 1964
2728.35 1960
2729.19 1948
2730.03 1987
2730.87 1949
2731.7 1944
2732.54 1964
2733.38 1956
2734.21 2010
2735.05 1963
2735.88 1973
2736.71 1960
2737.55 1996
2738.38 1969
2739.21 1971
2740.04 2026
2740.87 1940
2741.7 1996
2742.53 1954
2743.36 2015
2744.19 1953
2745.02 1997
2745.84 2040
2746.67 1973
2747.5 1982
2748.32 2051
2749.15 2010
2749.97 2033
2750.79 1959
2751.62 1972
2752.44 1974
2753.26 1980
2754.08 1967
2754.9 1955
2755.72 1972
2756.54 1957
2757.36 1988
2758.17 1983
2758.99 1947
2759.81 1980
2760.62 1978
2761.44 1932
2762.25 2039
2763.07 2127
2763.88 1964
2764.7 2029
2765.51 1933
2766.32 1963
2767.13 1983
2767.94 1976
2768.75 2007
2769.56 2022
2770.37 1970
2771.18 2003
2771.98 1997
2772.79 1959
2773.6 2000
2774.4 1957
2775.21 1975
2776.01 1991
2776.82 1999
2777.62 1940
2778.42 1935
2779.22 1995
2780.03 1979
2780.83 1926
2781.63 1960
2782.43 1979
2783.23 1978
2784.02 1979
2784.82 1961
2785.62 1980
2786.42 1927
2787.21 1965
2788.01 1967
2788.8 1939
2789.6 1964
2790.39 1994
2791.18 1987
2791.97 1942
2792.77 1942
2793.56 1968
2794.35 1932
2795.14 1942
2795.93 1940
2796.71 1956
2797.5 1953
2798.29 1968
2799.08 1960
2799.86 2001
2800.65 1997
2801.43 1995
2802.22 1985
2803 1948
2803.78 1951
2804.57 1967
2805.35 1963
2806.13 1927
2806.91 1937
2807.69 1987
2808.47 1995
2809.25 1986
2810.03 1958
2810.81 1947
2811.58 1939
2812.36 2003
2813.13 1956
2813.91 1932
2814.68 1938
2815.46 1967
2816.23 1995
2817 1980
2817.78 1912
2818.55 1916
2819.32 1966
2820.09 1966
2820.86 1988
2821.63 1980
2822.4 1949
2823.16 1964
2823.93 2000
2824.7 1965
2825.46 1964
2826.23 1950
2826.99 1909
2827.76 1960
2828.52 1915
2829.28 1940
2830.05 1968
2830.81 1931
2831.57 1984
2832.33 1923
2833.09 2020
2833.85 1961
2834.61 1955
2835.37 1940
2836.12 1942
2836.88 1956
2837.64 1979
2838.39 1935
2839.15 1953
2839.9 1956
2840.65 1976
2841.41 1923
2842.16 1919
2842.91 1919
2843.66 2005
2844.41 1916
2845.16 1950
2845.91 1995
2846.66 1959
2847.41 1990
2848.16 1940
2848.91 1972
2849.65 1962
2850.4 2003
2851.14 1968
2851.89 1937
2852.63 1993
2853.37 1968
2854.12 1966
2854.86 1952
2855.6 1947
2856.34 1966
2857.08 2000
2857.82 1953
2858.56 1961
2859.3 1995
2860.04 1961
2860.77 1929
2861.51 2007
2862.24 1899
2862.98 2002
2863.71 1950
2864.45 1995
2865.18 1938
2865.91 1983
2866.65 1948
2867.38 1997
2868.11 1986
2868.84 1944
2869.57 1934
2870.3 1996
2871.03 2030
2871.75 1981
2872.48 2049
2873.21 2089
2873.93 2201
2874.66 2396
2875.38 2398
2876.11 2459
2876.83 2606
2877.55 2558
2878.28 2577
2879 2524
2879.72 2418
2880.44 2433
2881.16 2273
2881.88 2183
2882.6 2129
2883.31 2100
2884.03 2083
2884.75 2054
2885.46 2070
2886.18 2042
2886.89 2025
2887.61 2015
2888.32 2005
2889.03 1996
2889.75 1949
2890.46 1959
2891.17 1982
2891.88 1991
2892.59 1964
2893.3 2015
2894.01 1963
2894.71 1977
2895.42 1962
2896.13 1977
2896.83 1942
2897.54 1939
2898.24 1967
2898.95 1944
2899.65 1935
2900.35 1929
2901.06 1983
2901.76 1967
2902.46 1948
2903.16 2126
2903.86 1922
2904.56 1922
2905.25 1946
