scanname 扫描252
timestamp 1/1/1970 00:21
ccdbias 1678.72
ccdgain 2.46132
sigmaread 11.4449
laserwavenum -0.537448
wavenumcorrection -0.810353
scancount 1
totalexposurems 1000
singleexposurems 1000
measurementstate Unknown
scanmode Identification
snr 6.75563 6.75563 6.75563
replacelist 0
peaks 21
290.639 0.256622 0 3.01466 0.000287252
356.454 0.252589 0 2.99738 0.000293475
415.769 0.234387 0 1.04574 0.000106742
492.425 0.22758 0 0.0809635 2.76639e-05
568.196 0.216863 0 0.276944 5.91869e-05
611.478 0.214112 0 0.313892 6.37509e-05
637.412 0.207489 0 0.154301 2.30512e-05
807.222 0.216091 0 5.87161 0.000672775
840.604 0.196338 0 1.94803 0.00029141
930.74 0.185347 0 1.43131 0.000256918
952.991 0.175353 0 0.172854 6.95092e-05
1079.3 0.170271 0 0.558141 0.000111964
1201.91 0.163944 0 0.581519 0.000126054
1247.47 0.163959 0 0.659203 0.000141523
1309.71 0.162255 0 0.400241 7.92701e-05
1353.09 0.312948 0 10.1206 0.0022237
1377.36 0.190591 0 0.702141 0.000289852
1542.63 0.175314 0 1.45776 0.000541841
1597.37 0.160145 0 1.13312 0.000438436
1940.28 0.103956 0 0.143428 3.13152e-05
2877.65 0.124778 0 0.361888 0.00334349
finalresult No match found 1A14782	9.01894e-10
spectrum 2048
-91.2464 0.00748909
-88.6484 0.0079349
-86.052 0.306479
-83.4575 0.28012
-80.8645 0.272448
-78.2734 0.327792
-75.6839 0.336271
-73.096 0.376269
-70.51 0.323596
-67.9256 0.353926
-65.3429 0.357475
-62.7619 0.380531
-60.1827 0.363546
-57.605 0.426946
-55.0291 0.387312
-52.4549 0.396306
-49.8824 0.452835
-47.3117 0.443567
-44.7425 0.448393
-42.1751 0.48756
-39.6093 0.52304
-37.0452 0.524493
-34.4829 0.521977
-31.9221 0.549736
-29.3631 0.547425
-26.8057 0.553509
-24.2502 0.571516
-21.6962 0.58429
-19.1438 0.618098
-16.5932 0.645501
-14.0442 0.693816
-11.497 0.785205
-8.95141 0.883433
-6.40756 0.429664
-3.86528 0.163381
-1.32462 0.133193
1.21422 0.133695
3.75156 0.134274
6.28706 0.143435
8.821 0.381114
11.3533 0.358876
13.8839 0.431408
16.4129 0.519851
18.9401 0.544592
21.4657 0.499934
23.9897 0.463652
26.512 0.460494
29.0327 0.443676
31.5517 0.452709
34.069 0.451777
36.5847 0.481004
39.0988 0.440098
41.6111 0.416545
44.1219 0.401941
46.631 0.383462
49.1385 0.362831
51.6443 0.349233
54.1484 0.3591
56.651 0.32845
59.1519 0.322495
61.6511 0.30701
64.1487 0.280876
66.6447 0.28679
69.1391 0.267008
71.6318 0.292584
74.1228 0.328209
76.6122 0.304089
79.1001 0.348386
81.5862 0.314704
84.0708 0.319451
86.5537 0.30875
89.035 0.325991
91.5147 0.259233
93.9927 0.277838
96.4692 0.285088
98.9439 0.314777
101.417 0.238236
103.888 0.240413
106.358 0.24907
108.827 0.264988
111.293 0.260959
113.758 0.22309
116.222 0.231113
118.684 0.241989
121.144 0.240523
123.603 0.256489
126.06 0.265129
128.515 0.247657
130.969 0.251156
133.421 0.248738
135.872 0.24966
138.321 0.242102
140.768 0.239422
143.214 0.245777
145.658 0.241007
148.101 0.242756
150.542 0.241122
152.981 0.241646
155.419 0.233697
157.856 0.237419
160.29 0.238004
162.723 0.236922
165.155 0.237094
167.585 0.236454
170.013 0.234014
172.44 0.232997
174.865 0.233291
177.288 0.237367
179.71 0.236415
182.131 0.238157
184.549 0.236272
186.967 0.239502
189.382 0.23759
191.796 0.238559
194.209 0.238126
196.62 0.238197
199.029 0.236346
201.437 0.237382
203.843 0.240937
206.248 0.241665
208.651 0.247236
211.052 0.252272
213.452 0.26054
215.851 0.264236
218.247 0.265584
220.643 0.261261
223.036 0.257032
225.428 0.252541
227.819 0.252731
230.208 0.256687
232.595 0.258804
234.981 0.260078
237.365 0.257416
239.748 0.253452
242.129 0.249706
244.509 0.245742
246.887 0.243319
249.264 0.241193
251.639 0.241372
254.012 0.241896
256.384 0.238396
258.755 0.238828
261.124 0.237443
263.491 0.236938
265.857 0.237862
268.221 0.236837
270.583 0.236298
272.945 0.238288
275.304 0.235315
277.662 0.236975
280.019 0.238265
282.374 0.238272
284.727 0.245374
287.079 0.250495
289.43 0.258352
291.778 0.257677
294.126 0.252161
296.472 0.246657
298.816 0.240681
301.159 0.238598
303.5 0.236693
305.84 0.236754
308.178 0.234694
310.515 0.237336
312.85 0.234712
315.183 0.235812
317.515 0.233212
319.846 0.23296
322.175 0.232673
324.503 0.235333
326.829 0.234084
329.153 0.234686
331.477 0.234767
333.798 0.235276
336.118 0.233935
338.437 0.233215
340.754 0.232447
343.069 0.232607
345.383 0.235738
347.696 0.235916
350.007 0.239224
352.316 0.247207
354.624 0.255021
356.931 0.254222
359.236 0.245823
361.539 0.244014
363.841 0.238463
366.142 0.235421
368.441 0.234608
370.739 0.235096
373.035 0.232132
375.329 0.231307
377.622 0.228226
379.914 0.229521
382.204 0.229781
384.493 0.229208
386.78 0.227718
389.065 0.227392
391.35 0.227242
393.632 0.226726
395.914 0.230456
398.193 0.229486
400.472 0.22925
402.749 0.230695
405.024 0.232076
407.298 0.227624
409.57 0.227035
411.841 0.232576
414.111 0.237972
416.378 0.236103
418.645 0.2334
420.91 0.228187
423.174 0.225742
425.436 0.227568
427.696 0.225386
429.956 0.223721
432.213 0.22518
434.47 0.222731
436.724 0.22416
438.978 0.224094
441.23 0.224119
443.48 0.22258
445.729 0.221978
447.977 0.223249
450.223 0.224145
452.467 0.223035
454.71 0.225233
456.952 0.224715
459.192 0.222249
461.431 0.224069
463.669 0.225436
465.905 0.227309
468.139 0.22534
470.372 0.223704
472.604 0.226732
474.834 0.226442
477.063 0.22633
479.29 0.224277
481.516 0.2267
483.74 0.225119
485.963 0.228116
488.185 0.226369
490.405 0.225671
492.624 0.227531
494.841 0.227314
497.057 0.230126
499.271 0.225114
501.484 0.225352
503.695 0.22253
505.906 0.223418
508.114 0.220137
510.322 0.221757
512.527 0.218678
514.732 0.21722
516.935 0.218034
519.136 0.216186
521.337 0.217164
523.535 0.21837
525.733 0.215894
527.929 0.219226
530.123 0.217662
532.316 0.218523
534.508 0.219637
536.698 0.219094
538.887 0.216596
541.074 0.215351
543.26 0.217203
545.445 0.215515
547.628 0.214355
549.81 0.215839
551.99 0.214974
554.17 0.215413
556.347 0.2159
558.523 0.214565
560.698 0.214699
562.872 0.213889
565.044 0.214089
567.214 0.21888
569.383 0.218424
571.551 0.215157
573.718 0.215035
575.883 0.212479
578.046 0.211672
580.209 0.212049
582.37 0.211751
584.529 0.210509
586.687 0.210563
588.844 0.210291
590.999 0.210223
593.153 0.20967
595.306 0.211092
597.457 0.212779
599.607 0.211847
601.755 0.211157
603.902 0.211969
606.048 0.212457
608.192 0.21406
610.335 0.2129
612.477 0.213063
614.617 0.213865
616.756 0.213923
618.893 0.210664
621.029 0.20734
623.164 0.20559
625.297 0.204838
627.429 0.208427
629.56 0.205834
631.689 0.20652
633.817 0.205902
635.943 0.209034
638.068 0.210255
640.192 0.205052
642.314 0.20721
644.435 0.206012
646.555 0.205063
648.674 0.204364
650.791 0.203735
652.906 0.201134
655.02 0.201174
657.133 0.20181
659.245 0.202653
661.355 0.201127
663.464 0.202636
665.571 0.201966
667.678 0.201644
669.782 0.202893
671.886 0.20217
673.988 0.200865
676.089 0.201164
678.188 0.198515
680.286 0.199773
682.383 0.19977
684.479 0.201386
686.573 0.201612
688.665 0.200814
690.757 0.20243
692.847 0.202656
694.936 0.197787
697.023 0.199164
699.109 0.197744
701.194 0.19986
703.277 0.196521
705.359 0.196204
707.44 0.197276
709.52 0.197768
711.598 0.195632
713.674 0.196643
715.75 0.196535
717.824 0.196167
719.897 0.194116
721.968 0.197677
724.038 0.195032
726.107 0.19303
728.175 0.194631
730.241 0.195512
732.306 0.195455
734.369 0.193674
736.432 0.193306
738.493 0.194182
740.552 0.193989
742.611 0.191972
744.668 0.194678
746.723 0.193588
748.778 0.194209
750.831 0.194855
752.883 0.190973
754.933 0.190943
756.982 0.190262
759.03 0.191481
761.076 0.189255
763.122 0.191193
765.166 0.19294
767.208 0.190331
769.25 0.190866
771.29 0.190519
773.328 0.189574
775.366 0.188279
777.402 0.187413
779.437 0.188827
781.471 0.190758
783.503 0.187277
785.534 0.184665
787.564 0.18558
789.592 0.186372
791.619 0.186782
793.645 0.188375
795.669 0.186167
797.693 0.188717
799.715 0.18816
801.735 0.19435
803.755 0.209009
805.773 0.216351
807.79 0.217011
809.805 0.210545
811.82 0.197818
813.833 0.189462
815.844 0.187767
817.855 0.185301
819.864 0.184626
821.872 0.182414
823.879 0.185073
825.884 0.183579
827.888 0.182309
829.891 0.181377
831.893 0.183542
833.893 0.185191
835.892 0.189457
837.89 0.195149
839.886 0.19537
841.881 0.196144
843.875 0.193876
845.868 0.187062
847.859 0.181539
849.85 0.183771
851.839 0.182592
853.826 0.181998
855.813 0.180065
857.798 0.182708
859.782 0.182534
861.764 0.1802
863.746 0.178941
865.726 0.177643
867.705 0.179107
869.682 0.176824
871.659 0.179395
873.634 0.176921
875.608 0.178276
877.58 0.17584
879.552 0.176502
881.522 0.177392
883.491 0.175797
885.459 0.178279
887.425 0.179292
889.39 0.177545
891.354 0.174863
893.317 0.175153
895.278 0.177909
897.238 0.175259
899.197 0.174001
901.155 0.172942
903.112 0.17551
905.067 0.176579
907.021 0.176572
908.974 0.174917
910.925 0.174083
912.876 0.1759
914.825 0.173692
916.773 0.175265
918.719 0.171872
920.665 0.174438
922.609 0.174972
924.552 0.175271
926.494 0.181268
928.434 0.183842
930.374 0.184677
932.312 0.185546
934.249 0.181662
936.184 0.17788
938.119 0.177088
940.052 0.172374
941.984 0.174528
943.915 0.173742
945.844 0.170699
947.773 0.175077
949.7 0.173464
951.626 0.172889
953.55 0.1759
955.474 0.176621
957.396 0.173186
959.317 0.172813
961.237 0.172018
963.156 0.166947
965.073 0.169983
966.99 0.167518
968.905 0.168498
970.819 0.168014
972.731 0.167757
974.643 0.168642
976.553 0.168321
978.462 0.167957
980.37 0.167972
982.277 0.167712
984.182 0.166935
986.086 0.169638
987.989 0.168443
989.891 0.166882
991.792 0.168266
993.691 0.16791
995.59 0.165474
997.487 0.166435
999.383 0.167433
1001.28 0.165958
1003.17 0.16494
1005.06 0.164355
1006.95 0.165708
1008.84 0.164212
1010.73 0.165267
1012.62 0.164814
1014.51 0.164216
1016.39 0.163805
1018.28 0.165512
1020.16 0.16566
1022.04 0.164671
1023.92 0.164937
1025.8 0.163968
1027.68 0.166374
1029.56 0.163637
1031.43 0.165346
1033.31 0.164139
1035.18 0.161582
1037.05 0.160656
1038.92 0.161759
1040.79 0.162644
1042.66 0.163497
1044.53 0.163159
1046.4 0.160651
1048.26 0.163863
1050.13 0.162635
1051.99 0.162544
1053.85 0.163735
1055.71 0.161914
1057.57 0.160038
1059.43 0.162995
1061.29 0.162249
1063.14 0.162341
1065 0.162598
1066.85 0.161304
1068.7 0.163713
1070.56 0.163739
1072.41 0.163765
1074.26 0.168928
1076.1 0.168681
1077.95 0.170444
1079.8 0.17137
1081.64 0.169825
1083.48 0.165619
1085.33 0.166338
1087.17 0.164358
1089.01 0.160193
1090.85 0.161275
1092.68 0.15978
1094.52 0.161052
1096.35 0.160989
1098.19 0.161192
1100.02 0.159123
1101.85 0.160792
1103.68 0.158874
1105.51 0.159039
1107.34 0.160727
1109.17 0.159027
1111 0.160605
1112.82 0.159561
1114.64 0.157812
1116.47 0.159363
1118.29 0.159231
1120.11 0.157953
1121.93 0.159679
1123.75 0.160875
1125.56 0.158957
1127.38 0.160969
1129.2 0.160191
1131.01 0.157798
1132.82 0.157868
1134.63 0.160029
1136.44 0.156533
1138.25 0.156973
1140.06 0.156699
1141.87 0.156212
1143.67 0.159812
1145.48 0.157196
1147.28 0.156699
1149.08 0.157594
1150.89 0.157645
1152.69 0.154874
1154.49 0.1561
1156.28 0.158764
1158.08 0.156474
1159.88 0.155322
1161.67 0.157046
1163.46 0.155828
1165.26 0.154521
1167.05 0.154648
1168.84 0.153572
1170.63 0.15605
1172.42 0.155741
1174.2 0.155578
1175.99 0.157467
1177.77 0.156131
1179.56 0.15349
1181.34 0.156652
1183.12 0.156955
1184.9 0.156295
1186.68 0.156381
1188.46 0.157937
1190.24 0.156714
1192.01 0.154797
1193.79 0.158372
1195.56 0.158534
1197.33 0.160783
1199.1 0.164199
1200.87 0.164032
1202.64 0.163484
1204.41 0.164114
1206.18 0.160167
1207.95 0.158617
1209.71 0.157289
1211.47 0.154672
1213.24 0.154648
1215 0.155682
1216.76 0.15585
1218.52 0.15575
1220.28 0.153198
1222.04 0.156507
1223.79 0.156244
1225.55 0.156844
1227.3 0.154493
1229.05 0.152692
1230.81 0.155805
1232.56 0.154149
1234.31 0.155107
1236.05 0.155993
1237.8 0.157401
1239.55 0.158339
1241.29 0.158727
1243.04 0.160658
1244.78 0.162019
1246.52 0.166778
1248.27 0.163059
1250.01 0.161549
1251.75 0.161463
1253.48 0.159504
1255.22 0.155321
1256.96 0.156255
1258.69 0.153797
1260.42 0.152574
1262.16 0.156667
1263.89 0.154856
1265.62 0.154963
1267.35 0.151497
1269.08 0.152854
1270.8 0.153912
1272.53 0.152512
1274.26 0.153789
1275.98 0.153238
1277.7 0.151727
1279.42 0.155213
1281.15 0.153539
1282.87 0.156153
1284.58 0.153188
1286.3 0.155132
1288.02 0.155725
1289.73 0.154938
1291.45 0.153588
1293.16 0.155045
1294.88 0.156439
1296.59 0.157425
1298.3 0.157148
1300.01 0.155888
1301.71 0.157908
1303.42 0.159063
1305.13 0.160321
1306.83 0.161029
1308.54 0.161315
1310.24 0.162012
1311.94 0.16151
1313.64 0.162879
1315.34 0.160091
1317.04 0.158704
1318.74 0.154458
1320.44 0.157065
1322.13 0.159477
1323.83 0.160978
1325.52 0.161528
1327.21 0.160192
1328.91 0.161539
1330.6 0.162407
1332.29 0.167677
1333.98 0.170779
1335.66 0.175355
1337.35 0.185066
1339.03 0.193275
1340.72 0.197366
1342.4 0.205825
1344.08 0.212064
1345.77 0.229886
1347.45 0.248084
1349.13 0.269258
1350.8 0.299532
1352.48 0.314325
1354.16 0.315208
1355.83 0.29626
1357.51 0.267213
1359.18 0.244552
1360.85 0.224543
1362.52 0.208033
1364.19 0.195229
1365.86 0.191995
1367.53 0.187468
1369.2 0.185282
1370.86 0.18384
1372.53 0.183161
1374.19 0.188079
1375.86 0.189722
1377.52 0.18998
1379.18 0.189345
1380.84 0.187775
1382.5 0.183515
1384.15 0.176646
1385.81 0.172705
1387.47 0.172439
1389.12 0.172534
1390.78 0.168369
1392.43 0.164281
1394.08 0.161805
1395.73 0.158213
1397.38 0.155213
1399.03 0.155499
1400.68 0.152606
1402.33 0.153508
1403.97 0.155565
1405.62 0.154114
1407.26 0.153059
1408.9 0.151204
1410.54 0.150561
1412.19 0.151538
1413.83 0.153783
1415.46 0.153512
1417.1 0.149105
1418.74 0.151095
1420.37 0.150707
1422.01 0.152734
1423.64 0.151525
1425.28 0.150029
1426.91 0.147157
1428.54 0.149811
1430.17 0.147677
1431.8 0.149477
1433.43 0.14984
1435.05 0.149565
1436.68 0.148951
1438.3 0.148617
1439.93 0.146573
1441.55 0.150441
1443.17 0.14974
1444.79 0.148601
1446.41 0.14928
1448.03 0.147104
1449.65 0.146405
1451.27 0.14756
1452.88 0.144894
1454.5 0.143819
1456.11 0.145817
1457.73 0.145529
1459.34 0.146412
1460.95 0.145018
1462.56 0.144867
1464.17 0.145396
1465.78 0.147355
1467.39 0.143915
1468.99 0.145324
1470.6 0.14512
1472.2 0.142903
1473.81 0.143952
1475.41 0.143821
1477.01 0.145233
1478.61 0.144213
1480.21 0.142644
1481.81 0.145034
1483.41 0.145353
1485 0.146489
1486.6 0.143002
1488.19 0.143958
1489.79 0.142413
1491.38 0.142933
1492.97 0.142566
1494.56 0.147572
1496.15 0.142793
1497.74 0.146112
1499.33 0.145461
1500.92 0.145998
1502.5 0.142322
1504.09 0.143153
1505.67 0.141222
1507.25 0.141885
1508.84 0.142436
1510.42 0.14419
1512 0.144053
1513.58 0.143016
1515.16 0.144506
1516.73 0.142172
1518.31 0.143265
1519.89 0.145989
1521.46 0.142605
1523.03 0.14406
1524.61 0.146855
1526.18 0.146025
1527.75 0.143575
1529.32 0.147765
1530.89 0.147727
1532.46 0.1459
1534.02 0.148274
1535.59 0.150595
1537.16 0.160156
1538.72 0.164533
1540.28 0.173487
1541.85 0.174944
1543.41 0.176604
1544.97 0.170433
1546.53 0.167658
1548.09 0.16597
1549.64 0.164062
1551.2 0.159888
1552.76 0.154991
1554.31 0.155392
1555.86 0.154336
1557.42 0.150442
1558.97 0.149519
1560.52 0.149857
1562.07 0.150115
1563.62 0.145045
1565.17 0.146438
1566.72 0.143538
1568.26 0.140271
1569.81 0.138542
1571.35 0.141857
1572.9 0.138473
1574.44 0.139559
1575.98 0.142414
1577.52 0.138119
1579.06 0.141575
1580.6 0.139871
1582.14 0.141067
1583.68 0.140133
1585.21 0.140491
1586.75 0.140339
1588.28 0.144543
1589.82 0.147923
1591.35 0.144588
1592.88 0.149572
1594.41 0.158583
1595.94 0.159045
1597.47 0.159586
1599 0.158332
1600.53 0.156307
1602.05 0.152562
1603.58 0.1459
1605.1 0.14462
1606.62 0.141041
1608.15 0.140408
1609.67 0.137025
1611.19 0.13523
1612.71 0.137147
1614.23 0.134231
1615.75 0.134471
1617.26 0.134161
1618.78 0.135557
1620.29 0.133283
1621.81 0.132073
1623.32 0.13322
1624.84 0.134287
1626.35 0.132485
1627.86 0.133261
1629.37 0.133355
1630.88 0.131849
1632.38 0.129156
1633.89 0.132229
1635.4 0.13414
1636.9 0.129464
1638.41 0.128802
1639.91 0.129391
1641.41 0.130458
1642.92 0.129351
1644.42 0.129652
1645.92 0.127284
1647.42 0.125595
1648.91 0.12776
1650.41 0.127152
1651.91 0.126829
1653.4 0.128333
1654.9 0.126432
1656.39 0.124261
1657.88 0.127476
1659.38 0.127078
1660.87 0.12583
1662.36 0.124977
1663.85 0.126656
1665.34 0.125367
1666.82 0.12354
1668.31 0.125179
1669.79 0.125739
1671.28 0.123792
1672.76 0.123968
1674.25 0.126415
1675.73 0.123886
1677.21 0.118464
1678.69 0.12126
1680.17 0.121006
1681.65 0.118878
1683.13 0.122166
1684.6 0.120549
1686.08 0.119542
1687.55 0.117947
1689.03 0.118523
1690.5 0.120137
1691.97 0.119801
1693.45 0.119923
1694.92 0.119559
1696.39 0.119327
1697.86 0.122145
1699.32 0.121762
1700.79 0.122596
1702.26 0.122874
1703.72 0.121951
1705.19 0.120519
1706.65 0.121984
1708.11 0.122435
1709.58 0.12338
1711.04 0.121289
1712.5 0.117853
1713.96 0.120022
1715.42 0.122068
1716.87 0.123356
1718.33 0.121496
1719.79 0.120586
1721.24 0.119895
1722.7 0.117607
1724.15 0.119517
1725.6 0.120329
1727.05 0.117703
1728.5 0.121863
1729.95 0.12231
1731.4 0.120248
1732.85 0.116816
1734.3 0.121108
1735.75 0.11968
1737.19 0.121285
1738.64 0.114908
1740.08 0.116855
1741.52 0.117446
1742.96 0.116481
1744.41 0.116805
1745.85 0.117926
1747.29 0.117285
1748.72 0.11617
1750.16 0.117266
1751.6 0.115972
1753.04 0.115893
1754.47 0.118701
1755.91 0.118979
1757.34 0.11829
1758.77 0.117472
1760.2 0.119107
1761.64 0.117181
1763.07 0.116896
1764.5 0.119275
1765.92 0.114917
1767.35 0.116608
1768.78 0.116137
1770.2 0.114266
1771.63 0.114872
1773.05 0.113079
1774.48 0.117279
1775.9 0.116318
1777.32 0.109692
1778.74 0.117082
1780.16 0.113975
1781.58 0.113095
1783 0.112176
1784.42 0.111327
1785.84 0.111783
1787.25 0.111982
1788.67 0.113905
1790.08 0.111439
1791.49 0.111125
1792.91 0.111471
1794.32 0.111827
1795.73 0.113885
1797.14 0.113605
1798.55 0.114016
1799.96 0.115352
1801.37 0.11621
1802.77 0.118377
1804.18 0.113272
1805.58 0.116751
1806.99 0.114689
1808.39 0.116554
1809.79 0.115779
1811.2 0.117842
1812.6 0.1186
1814 0.119915
1815.4 0.112814
1816.79 0.118084
1818.19 0.117846
1819.59 0.118004
1820.98 0.115574
1822.38 0.118079
1823.77 0.115786
1825.17 0.117507
1826.56 0.118191
1827.95 0.114913
1829.34 0.112491
1830.73 0.118308
1832.12 0.116523
1833.51 0.112843
1834.9 0.113602
1836.29 0.11428
1837.67 0.115581
1839.06 0.114652
1840.44 0.112657
1841.83 0.111886
1843.21 0.114198
1844.59 0.114087
1845.97 0.111334
1847.35 0.108756
1848.73 0.110439
1850.11 0.110644
1851.49 0.109637
1852.87 0.108383
1854.24 0.106953
1855.62 0.110033
1856.99 0.11139
1858.37 0.108527
1859.74 0.10621
1861.11 0.107826
1862.48 0.107046
1863.85 0.104795
1865.22 0.107973
1866.59 0.102625
1867.96 0.101279
1869.33 0.102963
1870.7 0.107057
1872.06 0.10688
1873.43 0.104685
1874.79 0.104244
1876.16 0.103035
1877.52 0.102275
1878.88 0.102602
1880.24 0.105667
1881.6 0.103821
1882.96 0.102352
1884.32 0.102146
1885.68 0.099944
1887.03 0.100273
1888.39 0.103986
1889.75 0.0998133
1891.1 0.100293
1892.45 0.0976035
1893.81 0.0996656
1895.16 0.100643
1896.51 0.104864
1897.86 0.100756
1899.21 0.102929
1900.56 0.102007
1901.91 0.1037
1903.26 0.102908
1904.6 0.100752
1905.95 0.102044
1907.29 0.103358
1908.64 0.102585
1909.98 0.102711
1911.33 0.105978
1912.67 0.103065
1914.01 0.101246
1915.35 0.103475
1916.69 0.10061
1918.03 0.102335
1919.37 0.102234
1920.7 0.102667
1922.04 0.102029
1923.38 0.10125
1924.71 0.104958
1926.04 0.106344
1927.38 0.104697
1928.71 0.105817
1930.04 0.101064
1931.37 0.102094
1932.7 0.103293
1934.03 0.0993758
1935.36 0.10431
1936.69 0.103184
1938.02 0.102811
1939.34 0.103419
1940.67 0.105557
1941.99 0.108655
1943.32 0.103178
1944.64 0.100606
1945.96 0.10196
1947.28 0.102731
1948.6 0.101224
1949.92 0.100044
1951.24 0.0993359
1952.56 0.101115
1953.88 0.100357
1955.2 0.0952072
1956.51 0.097868
1957.83 0.0977694
1959.14 0.094193
1960.46 0.09577
1961.77 0.0952225
1963.08 0.0943655
1964.39 0.097057
1965.71 0.0980786
1967.02 0.0969753
1968.33 0.0971198
1969.63 0.0949479
1970.94 0.0962926
1972.25 0.0967527
1973.55 0.0984147
1974.86 0.0976773
1976.16 0.0968487
1977.47 0.100373
1978.77 0.0986054
1980.07 0.10047
1981.38 0.0995568
1982.68 0.0977158
1983.98 0.101264
1985.28 0.0956641
1986.57 0.0982613
1987.87 0.0986174
1989.17 0.0999026
1990.47 0.0965211
1991.76 0.0970924
1993.06 0.0990389
1994.35 0.0960149
1995.64 0.0977394
1996.94 0.0978578
1998.23 0.0970326
1999.52 0.0985754
2000.81 0.0949557
2002.1 0.0961693
2003.39 0.0951547
2004.68 0.0933983
2005.96 0.0958152
2007.25 0.0960449
2008.53 0.0979823
2009.82 0.097987
2011.1 0.0973015
2012.39 0.0964915
2013.67 0.0970146
2014.95 0.0984398
2016.23 0.0965519
2017.51 0.092899
2018.79 0.0983569
2020.07 0.094722
2021.35 0.0944716
2022.63 0.0926629
2023.9 0.0943972
2025.18 0.0949542
2026.46 0.0970031
2027.73 0.0970578
2029 0.0956968
2030.28 0.097107
2031.55 0.0907118
2032.82 0.0900053
2034.09 0.0935133
2035.36 0.0962676
2036.63 0.0941327
2037.9 0.0947685
2039.17 0.09553
2040.43 0.0957539
2041.7 0.093504
2042.96 0.0966666
2044.23 0.0997588
2045.49 0.0929158
2046.76 0.0957031
2048.02 0.0958937
2049.28 0.0947604
2050.54 0.0939503
2051.8 0.0949914
2053.06 0.091241
2054.32 0.0935589
2055.58 0.0921671
2056.84 0.0948048
2058.09 0.0936213
2059.35 0.0949288
2060.6 0.0939858
2061.86 0.094816
2063.11 0.0944217
2064.37 0.0954068
2065.62 0.0919064
2066.87 0.0912881
2068.12 0.0940669
2069.37 0.0940471
2070.62 0.0904006
2071.87 0.0884924
2073.12 0.0920187
2074.36 0.0908435
2075.61 0.0929074
2076.85 0.0909658
2078.1 0.0910128
2079.34 0.08861
2080.59 0.0901338
2081.83 0.0872666
2083.07 0.0896119
2084.31 0.0899172
2085.55 0.0858628
2086.79 0.0901441
2088.03 0.0890763
2089.27 0.090251
2090.51 0.0895028
2091.74 0.086148
2092.98 0.0909569
2094.22 0.0908711
2095.45 0.0920829
2096.69 0.091204
2097.92 0.09096
2099.15 0.0889451
2100.38 0.0921437
2101.61 0.0882031
2102.84 0.0930504
2104.07 0.0926751
2105.3 0.0934294
2106.53 0.0930563
2107.76 0.0912581
2108.99 0.0915712
2110.21 0.0893757
2111.44 0.0896626
2112.66 0.0898632
2113.89 0.0904407
2115.11 0.0913941
2116.33 0.092139
2117.55 0.0911045
2118.77 0.0880157
2119.99 0.0904717
2121.21 0.0921767
2122.43 0.0937018
2123.65 0.0887497
2124.87 0.090179
2126.08 0.0915315
2127.3 0.0899968
2128.52 0.0897162
2129.73 0.0945341
2130.94 0.0886038
2132.16 0.0900654
2133.37 0.0895521
2134.58 0.0880841
2135.79 0.0902179
2137 0.0885049
2138.21 0.0918903
2139.42 0.0927882
2140.63 0.0890649
2141.84 0.0887116
2143.04 0.0854939
2144.25 0.0909986
2145.46 0.0854744
2146.66 0.0864355
2147.86 0.0877421
2149.07 0.0871592
2150.27 0.0886269
2151.47 0.086583
2152.67 0.0905308
2153.87 0.088156
2155.07 0.0903127
2156.27 0.0926679
2157.47 0.0885731
2158.67 0.0904895
2159.86 0.0887034
2161.06 0.0871498
2162.26 0.0875712
2163.45 0.0911155
2164.64 0.0886104
2165.84 0.0893655
2167.03 0.0899531
2168.22 0.0863808
2169.41 0.0885704
2170.6 0.0894093
2171.79 0.0883435
2172.98 0.0853836
2174.17 0.0876148
2175.36 0.0876158
2176.55 0.0856414
2177.73 0.0890201
2178.92 0.0868426
2180.1 0.0865902
2181.29 0.0868019
2182.47 0.0832451
2183.65 0.0887722
2184.84 0.0857384
2186.02 0.0856861
2187.2 0.0887917
2188.38 0.0879294
2189.56 0.0919868
2190.74 0.0869073
2191.91 0.0849408
2193.09 0.0865006
2194.27 0.0853282
2195.44 0.089166
2196.62 0.0836845
2197.79 0.0871693
2198.97 0.0869228
2200.14 0.0855393
2201.31 0.0836208
2202.49 0.0888047
2203.66 0.0873117
2204.83 0.083661
2206 0.0882377
2207.17 0.0855112
2208.33 0.0840094
2209.5 0.083306
2210.67 0.0883951
2211.83 0.0871078
2213 0.0860359
2214.16 0.0863784
2215.33 0.0872716
2216.49 0.085437
2217.66 0.0809812
2218.82 0.084837
2219.98 0.0851119
2221.14 0.0825976
2222.3 0.0843751
2223.46 0.0880718
2224.62 0.0803165
2225.78 0.0862079
2226.93 0.0826913
2228.09 0.0895291
2229.25 0.0851328
2230.4 0.0855828
2231.56 0.0848971
2232.71 0.084474
2233.86 0.0843005
2235.02 0.0845877
2236.17 0.0849329
2237.32 0.0864193
2238.47 0.0823786
2239.62 0.0847794
2240.77 0.0834735
2241.92 0.0828308
2243.06 0.0803318
2244.21 0.0856225
2245.36 0.0819386
2246.5 0.0875704
2247.65 0.0875703
2248.79 0.081335
2249.94 0.081101
2251.08 0.0846179
2252.22 0.0848336
2253.36 0.0806923
2254.5 0.0838971
2255.64 0.0845029
2256.78 0.0892267
2257.92 0.0838027
2259.06 0.086424
2260.2 0.0841798
2261.34 0.0829076
2262.47 0.0854298
2263.61 0.0821205
2264.74 0.0833761
2265.88 0.0812285
2267.01 0.0863121
2268.14 0.0882491
2269.28 0.0864875
2270.41 0.0835232
2271.54 0.0833236
2272.67 0.0866399
2273.8 0.0832275
2274.93 0.0827764
2276.06 0.0826538
2277.18 0.0830133
2278.31 0.0874326
2279.44 0.0838366
2280.56 0.0837039
2281.69 0.0834429
2282.81 0.0830256
2283.93 0.0825673
2285.06 0.0863935
2286.18 0.0804239
2287.3 0.0833521
2288.42 0.0838116
2289.54 0.0857081
2290.66 0.081153
2291.78 0.0845841
2292.9 0.0834081
2294.02 0.0833928
2295.13 0.0847626
2296.25 0.0840807
2297.36 0.0794791
2298.48 0.0871068
2299.59 0.0852105
2300.71 0.0844794
2301.82 0.0854606
2302.93 0.0808543
2304.04 0.0808783
2305.15 0.0797588
2306.26 0.0790488
2307.37 0.0804816
2308.48 0.0840209
2309.59 0.0815121
2310.7 0.0790694
2311.81 0.0845154
2312.91 0.082431
2314.02 0.0808528
2315.12 0.0824953
2316.23 0.079808
2317.33 0.0794432
2318.43 0.0808345
2319.53 0.0823538
2320.64 0.0783443
2321.74 0.0832964
2322.84 0.0782463
2323.94 0.0804718
2325.04 0.0831592
2326.13 0.0803574
2327.23 0.0829491
2328.33 0.0815637
2329.43 0.0793651
2330.52 0.0806915
2331.62 0.0851967
2332.71 0.0829335
2333.8 0.0808078
2334.9 0.0747395
2335.99 0.0826883
2337.08 0.0810417
2338.17 0.0857511
2339.26 0.0771501
2340.35 0.0798952
2341.44 0.0818109
2342.53 0.0819461
2343.62 0.0812358
2344.71 0.0849509
2345.79 0.0801059
2346.88 0.0776087
2347.96 0.0861996
2349.05 0.0838365
2350.13 0.0791279
2351.22 0.0825788
2352.3 0.0825428
2353.38 0.0806936
2354.46 0.0826259
2355.54 0.0825108
2356.62 0.0779798
2357.7 0.0827577
2358.78 0.0821114
2359.86 0.080745
2360.93 0.0793538
2362.01 0.0800023
2363.09 0.0828417
2364.16 0.0788847
2365.24 0.082233
2366.31 0.0799822
2367.39 0.0817803
2368.46 0.0759056
2369.53 0.0814209
2370.6 0.0788883
2371.67 0.0825433
2372.74 0.0803678
2373.81 0.0821412
2374.88 0.0758915
2375.95 0.0767175
2377.02 0.0792466
2378.09 0.0813615
2379.15 0.0775481
2380.22 0.0809449
2381.28 0.0810067
2382.35 0.0737633
2383.41 0.0800156
2384.47 0.0822925
2385.54 0.0735278
2386.6 0.0792843
2387.66 0.0806276
2388.72 0.0817097
2389.78 0.0759383
2390.84 0.0760158
2391.9 0.0795668
2392.96 0.0849347
2394.01 0.0799353
2395.07 0.0803697
2396.13 0.0800785
2397.18 0.0793084
2398.24 0.077597
2399.29 0.0795048
2400.34 0.0704112
2401.4 0.0732062
2402.45 0.076295
2403.5 0.0774014
2404.55 0.0789488
2405.6 0.0786862
2406.65 0.078753
2407.7 0.0759349
2408.75 0.0753777
2409.8 0.0762853
2410.84 0.078242
2411.89 0.0761458
2412.94 0.0752727
2413.98 0.082079
2415.03 0.0782218
2416.07 0.0756499
2417.11 0.0793886
2418.16 0.0791359
2419.2 0.0781573
2420.24 0.0783017
2421.28 0.0735079
2422.32 0.0757754
2423.36 0.0807426
2424.4 0.0777874
2425.44 0.0784069
2426.48 0.0795431
2427.51 0.0783575
2428.55 0.0755555
2429.58 0.0756811
2430.62 0.075061
2431.65 0.0773754
2432.69 0.0746903
2433.72 0.0774473
2434.75 0.0774679
2435.78 0.076892
2436.82 0.0812054
2437.85 0.0756796
2438.88 0.075388
2439.91 0.0816814
2440.93 0.0745931
2441.96 0.0772765
2442.99 0.0744654
2444.02 0.0785592
2445.04 0.0781491
2446.07 0.0792702
2447.09 0.074012
2448.12 0.0762292
2449.14 0.0770858
2450.16 0.0748039
2451.19 0.0772194
2452.21 0.0723878
2453.23 0.0729268
2454.25 0.0768162
2455.27 0.0797487
2456.29 0.0761621
2457.31 0.0765445
2458.33 0.0738011
2459.34 0.0776887
2460.36 0.0735178
2461.38 0.0775772
2462.39 0.0725192
2463.41 0.0787199
2464.42 0.0767202
2465.43 0.0755358
2466.45 0.0777405
2467.46 0.0736026
2468.47 0.0704061
2469.48 0.0764346
2470.49 0.0717082
2471.5 0.0764755
2472.51 0.0751846
2473.52 0.0780874
2474.53 0.0791816
2475.54 0.0745889
2476.54 0.071951
2477.55 0.072721
2478.55 0.0735757
2479.56 0.0770826
2480.56 0.0765944
2481.57 0.0715139
2482.57 0.0749345
2483.57 0.0738494
2484.57 0.0740679
2485.57 0.08398
2486.57 0.0736129
2487.57 0.0754822
2488.57 0.078943
2489.57 0.0763514
2490.57 0.0779407
2491.57 0.0748178
2492.56 0.0755352
2493.56 0.0791368
2494.55 0.0757079
2495.55 0.0750206
2496.54 0.0679469
2497.54 0.0773552
2498.53 0.0670642
2499.52 0.0733805
2500.51 0.068419
2501.51 0.0711737
2502.5 0.07054
2503.49 0.0715322
2504.47 0.0720957
2505.46 0.073634
2506.45 0.0741519
2507.44 0.0738629
2508.43 0.0693137
2509.41 0.0712534
2510.4 0.0709621
2511.38 0.0723079
2512.37 0.0757612
2513.35 0.0764341
2514.33 0.0711966
2515.32 0.0779925
2516.3 0.067276
2517.28 0.0663434
2518.26 0.0723389
2519.24 0.0689266
2520.22 0.0703512
2521.2 0.0728807
2522.17 0.0743411
2523.15 0.0711775
2524.13 0.0733364
2525.1 0.0661845
2526.08 0.0660356
2527.05 0.0693817
2528.03 0.0645494
2529 0.0702769
2529.98 0.0734971
2530.95 0.0787636
2531.92 0.0734728
2532.89 0.0731611
2533.86 0.0747363
2534.83 0.0703676
2535.8 0.0744931
2536.77 0.0760456
2537.74 0.0691081
2538.71 0.0750075
2539.67 0.0664414
2540.64 0.0727058
2541.6 0.0758519
2542.57 0.0674107
2543.53 0.0705819
2544.5 0.0755804
2545.46 0.0757466
2546.42 0.0654437
2547.39 0.0767791
2548.35 0.0720117
2549.31 0.0686553
2550.27 0.0760507
2551.23 0.0685581
2552.19 0.0681401
2553.14 0.069917
2554.1 0.0690432
2555.06 0.0669606
2556.02 0.0701739
2556.97 0.0723139
2557.93 0.0736046
2558.88 0.074668
2559.84 0.069708
2560.79 0.0698883
2561.74 0.075068
2562.69 0.075212
2563.64 0.0795303
2564.6 0.0735209
2565.55 0.0677513
2566.5 0.0656758
2567.44 0.0711216
2568.39 0.0698248
2569.34 0.0654807
2570.29 0.0708433
2571.24 0.0713356
2572.18 0.0747889
2573.13 0.0714772
2574.07 0.0658858
2575.02 0.0797013
2575.96 0.0667102
2576.9 0.0711841
2577.84 0.068344
2578.79 0.0697767
2579.73 0.0729818
2580.67 0.0701902
2581.61 0.0721506
2582.55 0.0748934
2583.49 0.0701561
2584.42 0.0680492
2585.36 0.0687343
2586.3 0.072563
2587.23 0.0683
2588.17 0.0696507
2589.1 0.0673247
2590.04 0.0687834
2590.97 0.0731877
2591.9 0.071999
2592.84 0.0737937
2593.77 0.0709322
2594.7 0.0654716
2595.63 0.0745929
2596.56 0.0739361
2597.49 0.0684341
2598.42 0.0783019
2599.35 0.0724443
2600.28 0.073669
2601.2 0.0720421
2602.13 0.0714185
2603.06 0.0731281
2603.98 0.0698026
2604.9 0.0688727
2605.83 0.0689606
2606.75 0.067889
2607.67 0.0730121
2608.6 0.0677333
2609.52 0.0736888
2610.44 0.0683167
2611.36 0.0673448
2612.28 0.0710404
2613.2 0.0675625
2614.12 0.0734124
2615.04 0.0755803
2615.95 0.0717048
2616.87 0.0657802
2617.79 0.0735729
2618.7 0.0637564
2619.62 0.0707148
2620.53 0.0717241
2621.44 0.0727139
2622.36 0.0668243
2623.27 0.0717894
2624.18 0.0650821
2625.09 0.0731728
2626 0.0691488
2626.91 0.0651445
2627.82 0.0699281
2628.73 0.0722725
2629.64 0.0737576
2630.55 0.0705706
2631.45 0.0754556
2632.36 0.0681102
2633.26 0.0728527
2634.17 0.074943
2635.07 0.0690785
2635.98 0.0735662
2636.88 0.0756305
2637.78 0.0650583
2638.69 0.0654056
2639.59 0.0666984
2640.49 0.0671725
2641.39 0.0703238
2642.29 0.0684405
2643.19 0.0657223
2644.09 0.066873
2644.98 0.0664805
2645.88 0.0671057
2646.78 0.0753838
2647.67 0.0651089
2648.57 0.068084
2649.46 0.073431
2650.36 0.0620257
2651.25 0.071692
2652.14 0.0700259
2653.04 0.0736957
2653.93 0.0648605
2654.82 0.0700101
2655.71 0.0639113
2656.6 0.0714398
2657.49 0.0678685
2658.38 0.065423
2659.27 0.0646405
2660.15 0.0626441
2661.04 0.0708332
2661.93 0.0710584
2662.81 0.0740658
2663.7 0.0632721
2664.58 0.0689254
2665.47 0.0669517
2666.35 0.0691657
2667.23 0.0757981
2668.11 0.0629736
2669 0.0562916
2669.88 0.0652295
2670.76 0.0689855
2671.64 0.0645856
2672.52 0.0741707
2673.39 0.061846
2674.27 0.0704147
2675.15 0.0740716
2676.03 0.0699177
2676.9 0.0655918
2677.78 0.0768567
2678.65 0.0654036
2679.53 0.0693211
2680.4 0.0604666
2681.27 0.0685865
2682.14 0.071293
2683.02 0.0649378
2683.89 0.0674203
2684.76 0.0723301
2685.63 0.0732479
2686.5 0.0613658
2687.37 0.073137
2688.23 0.0723673
2689.1 0.0615714
2689.97 0.0731288
2690.83 0.0702249
2691.7 0.0773112
2692.56 0.0712243
2693.43 0.0785972
2694.29 0.0687959
2695.16 0.0699238
2696.02 0.0668998
2696.88 0.0726083
2697.74 0.0696027
2698.6 0.0682107
2699.46 0.066964
2700.32 0.0702894
2701.18 0.0747382
2702.04 0.0579375
2702.9 0.0680849
2703.76 0.0721067
2704.61 0.071354
2705.47 0.0723246
2706.32 0.0707191
2707.18 0.0679471
2708.03 0.0759926
2708.89 0.0662542
2709.74 0.0703315
2710.59 0.0677206
2711.44 0.0697276
2712.29 0.0597251
2713.15 0.0715584
2713.99 0.0709112
2714.84 0.0656494
2715.69 0.0723727
2716.54 0.0672935
2717.39 0.067585
2718.24 0.0690704
2719.08 0.0639881
2719.93 0.0697355
2720.77 0.0748864
2721.62 0.062367
2722.46 0.0663049
2723.3 0.0681561
2724.15 0.0594075
2724.99 0.0590903
2725.83 0.060481
2726.67 0.0615516
2727.51 0.0701497
2728.35 0.0654416
2729.19 0.0654635
2730.03 0.0579941
2730.87 0.064415
2731.7 0.0650578
2732.54 0.0723749
2733.38 0.0740712
2734.21 0.0684285
2735.05 0.0689423
2735.88 0.0665702
2736.71 0.0580346
2737.55 0.0660336
2738.38 0.0585979
2739.21 0.0699529
2740.04 0.0712943
2740.87 0.0727331
2741.7 0.0682316
2742.53 0.0720775
2743.36 0.0651753
2744.19 0.0593612
2745.02 0.0701961
2745.84 0.0745851
2746.67 0.0628601
2747.5 0.0677571
2748.32 0.0683145
2749.15 0.0688699
2749.97 0.0671598
2750.79 0.0614769
2751.62 0.0664368
2752.44 0.0638198
2753.26 0.0651061
2754.08 0.0615389
2754.9 0.0613027
2755.72 0.0647936
2756.54 0.0657469
2757.36 0.0645726
2758.17 0.0667803
2758.99 0.0725273
2759.81 0.0652033
2760.62 0.0749096
2761.44 0.0616625
2762.25 0.0568327
2763.07 0.067273
2763.88 0.0631631
2764.7 0.0617146
2765.51 0.0624388
2766.32 0.0696034
2767.13 0.0715988
2767.94 0.0634575
2768.75 0.0682564
2769.56 0.0721902
2770.37 0.0635802
2771.18 0.0636289
2771.98 0.0643991
2772.79 0.0667248
2773.6 0.070066
2774.4 0.0707965
2775.21 0.060198
2776.01 0.0615103
2776.82 0.0727769
2777.62 0.0700566
2778.42 0.0612984
2779.22 0.0673089
2780.03 0.0512274
2780.83 0.0687048
2781.63 0.0616275
2782.43 0.064145
2783.23 0.0600404
2784.02 0.0602003
2784.82 0.064758
2785.62 0.0643358
2786.42 0.0631012
2787.21 0.0779982
2788.01 0.0756444
2788.8 0.0599947
2789.6 0.0700365
2790.39 0.0665196
2791.18 0.0702918
2791.97 0.0644924
2792.77 0.0623118
2793.56 0.0656951
2794.35 0.0636906
2795.14 0.0696525
2795.93 0.0638864
2796.71 0.0664854
2797.5 0.0527601
2798.29 0.0664347
2799.08 0.0693329
2799.86 0.0621066
2800.65 0.074971
2801.43 0.0585686
2802.22 0.0663555
2803 0.0700062
2803.78 0.0631297
2804.57 0.0725781
2805.35 0.0646207
2806.13 0.0682883
2806.91 0.0635828
2807.69 0.072195
2808.47 0.0700037
2809.25 0.0647483
2810.03 0.0560699
2810.81 0.0591701
2811.58 0.0676428
2812.36 0.0700685
2813.13 0.063437
2813.91 0.068829
2814.68 0.0633203
2815.46 0.0638296
2816.23 0.0762389
2817 0.0800161
2817.78 0.0634536
2818.55 0.054657
2819.32 0.0744651
2820.09 0.059286
2820.86 0.0498691
2821.63 0.0659442
2822.4 0.0672629
2823.16 0.0648803
2823.93 0.0724666
2824.7 0.0601158
2825.46 0.0792578
2826.23 0.0617359
2826.99 0.070749
2827.76 0.0628284
2828.52 0.065471
2829.28 0.0627507
2830.05 0.06907
2830.81 0.0644167
2831.57 0.0622408
2832.33 0.0746285
2833.09 0.0567687
2833.85 0.0745199
2834.61 0.0654618
2835.37 0.0684051
2836.12 0.0531732
2836.88 0.0636959
2837.64 0.0596284
2838.39 0.0702187
2839.15 0.0547582
2839.9 0.0645323
2840.65 0.0710147
2841.41 0.0563316
2842.16 0.0621074
2842.91 0.0688205
2843.66 0.0633513
2844.41 0.0616512
2845.16 0.0555688
2845.91 0.0712504
2846.66 0.0705017
2847.41 0.0601416
2848.16 0.0569482
2848.91 0.0600877
2849.65 0.0633702
2850.4 0.070663
2851.14 0.0648251
2851.89 0.0633413
2852.63 0.0553262
2853.37 0.0686708
2854.12 0.0714742
2854.86 0.0660954
2855.6 0.0671453
2856.34 0.0551951
2857.08 0.0741535
2857.82 0.0462673
2858.56 0.0624648
2859.3 0.063741
2860.04 0.0609049
2860.77 0.0693822
2861.51 0.067759
2862.24 0.0555933
2862.98 0.0606834
2863.71 0.0717648
2864.45 0.0653345
2865.18 0.0588803
2865.91 0.0564172
2866.65 0.0665057
2867.38 0.0673
2868.11 0.0629969
2868.84 0.0740405
2869.57 0.0765233
2870.3 0.0497336
2871.03 0.0754258
2871.75 0.0739042
2872.48 0.0828871
2873.21 0.0657815
2873.93 0.0781356
2874.66 0.0968945
2875.38 0.118041
2876.11 0.103085
2876.83 0.112665
2877.55 0.130112
2878.28 0.125388
2879 0.131532
2879.72 0.106835
2880.44 0.0930524
2881.16 0.0842921
2881.88 0.0946948
2882.6 0.0899492
2883.31 0.0808073
2884.03 0.0845755
2884.75 0.0658924
2885.46 0.0781066
2886.18 0.0892171
2886.89 0.0669573
2887.61 0.0609595
2888.32 0.0829609
2889.03 0.0693149
2889.75 0.0644833
2890.46 0.0587021
2891.17 0.0622697
2891.88 0.0663271
2892.59 0.0730241
2893.3 0.0545746
2894.01 0.074221
2894.71 0.0693907
2895.42 0.0803018
2896.13 0.0590506
2896.83 0.0787808
2897.54 0.0512449
2898.24 0.0651915
2898.95 0.0730266
2899.65 0.0652748
2900.35 0.0629797
2901.06 0.069505
2901.76 0.0677181
2902.46 0.0674579
2903.16 0.0635755
2903.86 0.0877311
2904.56 0.063006
2905.25 0.0664147
spectrumdark 2048
-91.2464 2064
-88.6484 2055
-86.052 1990
-83.4575 2075
-80.8645 1948
-78.2734 1926
-75.6839 1922
-73.096 1952
-70.51 1955
-67.9256 1921
-65.3429 1920
-62.7619 1964
-60.1827 1937
-57.605 2007
-55.0291 1975
-52.4549 2000
-49.8824 1908
-47.3117 1986
-44.7425 2011
-42.1751 1935
-39.6093 1985
-37.0452 1977
-34.4829 1937
-31.9221 1983
-29.3631 1962
-26.8057 1943
-24.2502 1955
-21.6962 1935
-19.1438 1971
-16.5932 1896
-14.0442 1966
-11.497 2002
-8.95141 1967
-6.40756 1974
-3.86528 1956
-1.32462 1940
1.21422 1961
3.75156 1934
6.28706 1960
8.821 2017
11.3533 2021
13.8839 1967
16.4129 1976
18.9401 1997
21.4657 1955
23.9897 1910
26.512 1991
29.0327 1981
31.5517 1906
34.069 2062
36.5847 2037
39.0988 1990
41.6111 1994
44.1219 1937
46.631 1953
49.1385 1995
51.6443 1984
54.1484 1989
56.651 1966
59.1519 1955
61.6511 1974
64.1487 1956
66.6447 1942
69.1391 1945
71.6318 1982
74.1228 1980
76.6122 1929
79.1001 1985
81.5862 1918
84.0708 2017
86.5537 2040
89.035 1962
91.5147 1963
93.9927 1985
96.4692 1959
98.9439 2029
101.417 2028
103.888 1978
106.358 1959
108.827 1998
111.293 1942
113.758 1948
116.222 2028
118.684 1995
121.144 2052
123.603 1985
126.06 1960
128.515 2029
130.969 2075
133.421 2201
135.872 2202
138.321 2305
140.768 2391
143.214 2475
145.658 2603
148.101 2516
150.542 2662
152.981 2635
155.419 2714
157.856 2718
160.29 2733
162.723 2673
165.155 2783
167.585 2641
170.013 2716
172.44 2698
174.865 2702
177.288 2687
179.71 2730
182.131 2709
184.549 3041
186.967 2961
189.382 3011
191.796 3289
194.209 3199
196.62 3310
199.029 3315
201.437 3519
203.843 3382
206.248 3443
208.651 3440
211.052 3415
213.452 3435
215.851 3453
218.247 3434
220.643 3445
223.036 3443
225.428 3438
227.819 3487
230.208 3444
232.595 3439
234.981 3398
237.365 3372
239.748 3414
242.129 3376
244.509 3466
246.887 3440
249.264 3444
251.639 3452
254.012 3400
256.384 3349
258.755 3372
261.124 3496
263.491 3500
265.857 3464
268.221 3483
270.583 3412
272.945 3400
275.304 3357
277.662 3381
280.019 3354
282.374 3381
284.727 3360
287.079 3402
289.43 3398
291.778 3416
294.126 3439
296.472 3441
298.816 3425
301.159 3544
303.5 3396
305.84 3454
308.178 3423
310.515 3383
312.85 3785
315.183 3429
317.515 3492
319.846 3450
322.175 3370
324.503 3435
326.829 3510
329.153 3649
331.477 3776
333.798 3892
336.118 3835
338.437 3633
340.754 3482
343.069 3412
345.383 3520
347.696 3383
350.007 3419
352.316 3344
354.624 3733
356.931 3453
359.236 3499
361.539 3474
363.841 3372
366.142 3423
368.441 3418
370.739 3310
373.035 3349
375.329 3425
377.622 3419
379.914 3492
382.204 3385
384.493 3414
386.78 3358
389.065 3366
391.35 3353
393.632 3434
395.914 3592
398.193 4332
400.472 5033
402.749 5023
405.024 4788
407.298 4153
409.57 4780
411.841 7574
414.111 9527
416.378 9676
418.645 8355
420.91 5312
423.174 3924
425.436 3470
427.696 3397
429.956 3318
432.213 3320
434.47 3281
436.724 3329
438.978 3194
441.23 3216
443.48 3176
445.729 3079
447.977 3190
450.223 3149
452.467 3136
454.71 3089
456.952 3051
459.192 3072
461.431 3070
463.669 3097
465.905 2987
468.139 2963
470.372 3045
472.604 3004
474.834 3027
477.063 3006
479.29 3071
481.516 3014
483.74 3068
485.963 3082
488.185 2925
490.405 2930
492.624 2792
494.841 2956
497.057 2993
499.271 2959
501.484 3032
503.695 3012
505.906 3197
508.114 3151
510.322 2958
512.527 2893
514.732 2856
516.935 2943
519.136 2951
521.337 3060
523.535 3147
525.733 3349
527.929 3743
530.123 4063
532.316 4092
534.508 3931
536.698 3342
538.887 3043
541.074 3006
543.26 2952
545.445 2966
547.628 3037
549.81 3219
551.99 3316
554.17 3269
556.347 3204
558.523 3207
560.698 3151
562.872 3132
565.044 3154
567.214 3141
569.383 3103
571.551 3166
573.718 3125
575.883 3168
578.046 3070
580.209 2995
582.37 3016
584.529 2838
586.687 2668
588.844 2652
590.999 2587
593.153 2720
595.306 2865
597.457 2984
599.607 2981
601.755 3015
603.902 3152
606.048 3114
608.192 3117
610.335 3111
612.477 3126
614.617 3073
616.756 3192
618.893 3263
621.029 3219
623.164 3144
625.297 3130
627.429 3025
629.56 3163
631.689 3011
633.817 3277
635.943 3928
638.068 4266
640.192 4350
642.314 4231
644.435 3658
646.555 3257
648.674 3189
650.791 3089
652.906 3079
655.02 3013
657.133 3018
659.245 2926
661.355 3063
663.464 3242
665.571 3303
667.678 3265
669.782 3289
671.886 3159
673.988 2993
676.089 2966
678.188 3034
680.286 2987
682.383 3002
684.479 3266
686.573 4065
688.665 4885
690.757 5067
692.847 4836
694.936 3985
697.023 3218
699.109 3018
701.194 2999
703.277 3084
705.359 3090
707.44 3305
709.52 3029
711.598 3003
713.674 3017
715.75 3024
717.824 3023
719.897 2963
721.968 2834
724.038 2915
726.107 3077
728.175 3127
730.241 3106
732.306 3089
734.369 3062
736.432 3055
738.493 2987
740.552 2940
742.611 3387
744.668 3064
746.723 3002
748.778 2998
750.831 3069
752.883 3050
754.933 3373
756.982 3100
759.03 3156
761.076 3067
763.122 3092
765.166 3114
767.208 3152
769.25 3108
771.29 3114
773.328 3149
775.366 3308
777.402 3052
779.437 3053
781.471 3125
783.503 3054
785.534 3168
787.564 3125
789.592 3166
791.619 3119
793.645 3133
795.669 3113
797.693 3138
799.715 3140
801.735 3031
803.755 3015
805.773 3178
807.79 3116
809.805 3216
811.82 3146
813.833 3147
815.844 3097
817.855 3029
819.864 3148
821.872 3088
823.879 3199
825.884 3143
827.888 3087
829.891 3157
831.893 3045
833.893 3150
835.892 3094
837.89 3187
839.886 3171
841.881 3150
843.875 3209
845.868 3473
847.859 3223
849.85 3222
851.839 3221
853.826 3283
855.813 3055
857.798 3078
859.782 3016
861.764 3002
863.746 3114
865.726 3186
867.705 3252
869.682 3389
871.659 3405
873.634 3364
875.608 3189
877.58 3213
879.552 3146
881.522 3191
883.491 3104
885.459 3135
887.425 3515
889.39 3072
891.354 3114
893.317 3089
895.278 3098
897.238 3118
899.197 3108
901.155 3052
903.112 3078
905.067 3128
907.021 3153
908.974 3101
910.925 3109
912.876 3096
914.825 3104
916.773 3166
918.719 3134
920.665 3250
922.609 3065
924.552 3104
926.494 3020
928.434 3040
930.374 3040
932.312 3043
934.249 3068
936.184 3028
938.119 3080
940.052 3105
941.984 3050
943.915 3057
945.844 3088
947.773 3073
949.7 3462
951.626 3089
953.55 3090
955.474 3140
957.396 3095
959.317 3060
961.237 3079
963.156 3100
965.073 3101
966.99 3114
968.905 3017
970.819 3039
972.731 2885
974.643 2866
976.553 2924
978.462 2970
980.37 3038
982.277 3091
984.182 3169
986.086 3321
987.989 3501
989.891 3568
991.792 3359
993.691 3066
995.59 3042
997.487 2966
999.383 3024
1001.28 2951
1003.17 3101
1005.06 3120
1006.95 3088
1008.84 3045
1010.73 3067
1012.62 2966
1014.51 3028
1016.39 3189
1018.28 2982
1020.16 3042
1022.04 3088
1023.92 2969
1025.8 2987
1027.68 2925
1029.56 2853
1031.43 2741
1033.31 2691
1035.18 2671
1037.05 2766
1038.92 2779
1040.79 2822
1042.66 2979
1044.53 2922
1046.4 3121
1048.26 2955
1050.13 3012
1051.99 2894
1053.85 2968
1055.71 2938
1057.57 2966
1059.43 2905
1061.29 2917
1063.14 3040
1065 3008
1066.85 3140
1068.7 2903
1070.56 2930
1072.41 2964
1074.26 2893
1076.1 3048
1077.95 3002
1079.8 2925
1081.64 3012
1083.48 3139
1085.33 2973
1087.17 2889
1089.01 3015
1090.85 2960
1092.68 2963
1094.52 2963
1096.35 2939
1098.19 2962
1100.02 2948
1101.85 2942
1103.68 2943
1105.51 2974
1107.34 2956
1109.17 2972
1111 2901
1112.82 2935
1114.64 2992
1116.47 3028
1118.29 2920
1120.11 3002
1121.93 3179
1123.75 2909
1125.56 2952
1127.38 2956
1129.2 2909
1131.01 2954
1132.82 2970
1134.63 2953
1136.44 2945
1138.25 2938
1140.06 2917
1141.87 2957
1143.67 3007
1145.48 3022
1147.28 2928
1149.08 2919
1150.89 2959
1152.69 3243
1154.49 2976
1156.28 2977
1158.08 2891
1159.88 2947
1161.67 2930
1163.46 2860
1165.26 2902
1167.05 2910
1168.84 3002
1170.63 2953
1172.42 2901
1174.2 2940
1175.99 2932
1177.77 2908
1179.56 2866
1181.34 2898
1183.12 2953
1184.9 2908
1186.68 2884
1188.46 2889
1190.24 2777
1192.01 2839
1193.79 2721
1195.56 2809
1197.33 2663
1199.1 2734
1200.87 2783
1202.64 2843
1204.41 2826
1206.18 2862
1207.95 2864
1209.71 2847
1211.47 2823
1213.24 3249
1215 2921
1216.76 2889
1218.52 2890
1220.28 2906
1222.04 2838
1223.79 2935
1225.55 2847
1227.3 2796
1229.05 2908
1230.81 2824
1232.56 2870
1234.31 2870
1236.05 2832
1237.8 2872
1239.55 2872
1241.29 2816
1243.04 2861
1244.78 2920
1246.52 2784
1248.27 2884
1250.01 2933
1251.75 2879
1253.48 2836
1255.22 2873
1256.96 2833
1258.69 2874
1260.42 2847
1262.16 2828
1263.89 2799
1265.62 2858
1267.35 2872
1269.08 2831
1270.8 2865
1272.53 2831
1274.26 2836
1275.98 2816
1277.7 2850
1279.42 2831
1281.15 2847
1282.87 2737
1284.58 2780
1286.3 2825
1288.02 2822
1289.73 2879
1291.45 2818
1293.16 2868
1294.88 2803
1296.59 2769
1298.3 2778
1300.01 2785
1301.71 2788
1303.42 2826
1305.13 2870
1306.83 2836
1308.54 2771
1310.24 2781
1311.94 2796
1313.64 2889
1315.34 2813
1317.04 2795
1318.74 2846
1320.44 2828
1322.13 2839
1323.83 2850
1325.52 2834
1327.21 2824
1328.91 2852
1330.6 2799
1332.29 2888
1333.98 2825
1335.66 2848
1337.35 2780
1339.03 2875
1340.72 2809
1342.4 3050
1344.08 3984
1345.77 4596
1347.45 4855
1349.13 4799
1350.8 4120
1352.48 3361
1354.16 2988
1355.83 2814
1357.51 2879
1359.18 2880
1360.85 2943
1362.52 2892
1364.19 2764
1365.86 2774
1367.53 2697
1369.2 2751
1370.86 2785
1372.53 2821
1374.19 2756
1375.86 2791
1377.52 2842
1379.18 2787
1380.84 2807
1382.5 2740
1384.15 2762
1385.81 2616
1387.47 2763
1389.12 2738
1390.78 2692
1392.43 2736
1394.08 2756
1395.73 2755
1397.38 2737
1399.03 2756
1400.68 2772
1402.33 2713
1403.97 2735
1405.62 2723
1407.26 2724
1408.9 2733
1410.54 2727
1412.19 2806
1413.83 2759
1415.46 2724
1417.1 2810
1418.74 2650
1420.37 2752
1422.01 2762
1423.64 2741
1425.28 2693
1426.91 2789
1428.54 2725
1430.17 2740
1431.8 2730
1433.43 2746
1435.05 2747
1436.68 2838
1438.3 2772
1439.93 2784
1441.55 2721
1443.17 2662
1444.79 2716
1446.41 2757
1448.03 2705
1449.65 2678
1451.27 2689
1452.88 2700
1454.5 2726
1456.11 2726
1457.73 2633
1459.34 2659
1460.95 2757
1462.56 2740
1464.17 2649
1465.78 2679
1467.39 2678
1468.99 2695
1470.6 2724
1472.2 2711
1473.81 2686
1475.41 2752
1477.01 2634
1478.61 2669
1480.21 2631
1481.81 2636
1483.41 2668
1485 2792
1486.6 2642
1488.19 2730
1489.79 2721
1491.38 2800
1492.97 2685
1494.56 2660
1496.15 2661
1497.74 2667
1499.33 2628
1500.92 2619
1502.5 2684
1504.09 2918
1505.67 2579
1507.25 2741
1508.84 2734
1510.42 2592
1512 2613
1513.58 2719
1515.16 2639
1516.73 2696
1518.31 2649
1519.89 2647
1521.46 2587
1523.03 2666
1524.61 2592
1526.18 2570
1527.75 2611
1529.32 2494
1530.89 2569
1532.46 2729
1534.02 2601
1535.59 2663
1537.16 3117
1538.72 3722
1540.28 4031
1541.85 4066
1543.41 3895
1544.97 3315
1546.53 2944
1548.09 2646
1549.64 2568
1551.2 2542
1552.76 2654
1554.31 2532
1555.86 2525
1557.42 2444
1558.97 2536
1560.52 2509
1562.07 2541
1563.62 2547
1565.17 2488
1566.72 2497
1568.26 2518
1569.81 2530
1571.35 2411
1572.9 2480
1574.44 2458
1575.98 2429
1577.52 2493
1579.06 2446
1580.6 2464
1582.14 2389
1583.68 2406
1585.21 2299
1586.75 2424
1588.28 2465
1589.82 2438
1591.35 2465
1592.88 2438
1594.41 2372
1595.94 2318
1597.47 2341
1599 2438
1600.53 2384
1602.05 2421
1603.58 2417
1605.1 2438
1606.62 2480
1608.15 2412
1609.67 2410
1611.19 2399
1612.71 2381
1614.23 2312
1615.75 2241
1617.26 2200
1618.78 2207
1620.29 2299
1621.81 2361
1623.32 2351
1624.84 2456
1626.35 2455
1627.86 2406
1629.37 2450
1630.88 2382
1632.38 2369
1633.89 2411
1635.4 2320
1636.9 2352
1638.41 2392
1639.91 2614
1641.41 2314
1642.92 2385
1644.42 2485
1645.92 2425
1647.42 2360
1648.91 2333
1650.41 2327
1651.91 2443
1653.4 2359
1654.9 2420
1656.39 2471
1657.88 2315
1659.38 2354
1660.87 2403
1662.36 2296
1663.85 2390
1665.34 2446
1666.82 2365
1668.31 2443
1669.79 2384
1671.28 2409
1672.76 2496
1674.25 2495
1675.73 2478
1677.21 2497
1678.69 2490
1680.17 2448
1681.65 2491
1683.13 2408
1684.6 2431
1686.08 2449
1687.55 2468
1689.03 2447
1690.5 2497
1691.97 2451
1693.45 2451
1694.92 2405
1696.39 2438
1697.86 2455
1699.32 2458
1700.79 2423
1702.26 2422
1703.72 2376
1705.19 2355
1706.65 2301
1708.11 2286
1709.58 2408
1711.04 2385
1712.5 2455
1713.96 2310
1715.42 2348
1716.87 2260
1718.33 2298
1719.79 2291
1721.24 2376
1722.7 2392
1724.15 2392
1725.6 2340
1727.05 2294
1728.5 2224
1729.95 2296
1731.4 2376
1732.85 2305
1734.3 2324
1735.75 2301
1737.19 2273
1738.64 2373
1740.08 2274
1741.52 2281
1742.96 2315
1744.41 2295
1745.85 2274
1747.29 2357
1748.72 2367
1750.16 2251
1751.6 2286
1753.04 2420
1754.47 2290
1755.91 2338
1757.34 2307
1758.77 2301
1760.2 2265
1761.64 2308
1763.07 2300
1764.5 2402
1765.92 2327
1767.35 2403
1768.78 2320
1770.2 2436
1771.63 2277
1773.05 2278
1774.48 2306
1775.9 2328
1777.32 2500
1778.74 2382
1780.16 2476
1781.58 2461
1783 2344
1784.42 2320
1785.84 2261
1787.25 2233
1788.67 2295
1790.08 2256
1791.49 2264
1792.91 2207
1794.32 2218
1795.73 2210
1797.14 2288
1798.55 2297
1799.96 2271
1801.37 2316
1802.77 2309
1804.18 2380
1805.58 2419
1806.99 2315
1808.39 2441
1809.79 2302
1811.2 2344
1812.6 2266
1814 2251
1815.4 2171
1816.79 2184
1818.19 2236
1819.59 2256
1820.98 2270
1822.38 2286
1823.77 2272
1825.17 2269
1826.56 2261
1827.95 2340
1829.34 2368
1830.73 2384
1832.12 2355
1833.51 2322
1834.9 2288
1836.29 2308
1837.67 2220
1839.06 2263
1840.44 2220
1841.83 2164
1843.21 2169
1844.59 2249
1845.97 2259
1847.35 2316
1848.73 2281
1850.11 2271
1851.49 2291
1852.87 2314
1854.24 2252
1855.62 2246
1856.99 2287
1858.37 2315
1859.74 2388
1861.11 2293
1862.48 2348
1863.85 2311
1865.22 2282
1866.59 2360
1867.96 2314
1869.33 2313
1870.7 2243
1872.06 2353
1873.43 2369
1874.79 2428
1876.16 2362
1877.52 2379
1878.88 2462
1880.24 2270
1881.6 2332
1882.96 2340
1884.32 2278
1885.68 2264
1887.03 2245
1888.39 2337
1889.75 2325
1891.1 2309
1892.45 2281
1893.81 2354
1895.16 2347
1896.51 2334
1897.86 2314
1899.21 2346
1900.56 2273
1901.91 2271
1903.26 2368
1904.6 2293
1905.95 2309
1907.29 2326
1908.64 2346
1909.98 2264
1911.33 2278
1912.67 2335
1914.01 2253
1915.35 2213
1916.69 2304
1918.03 2304
1919.37 2278
1920.7 2294
1922.04 2294
1923.38 2292
1924.71 2244
1926.04 2312
1927.38 2369
1928.71 2260
1930.04 2289
1931.37 2324
1932.7 2269
1934.03 2319
1935.36 2356
1936.69 2266
1938.02 2397
1939.34 2270
1940.67 2199
1941.99 2208
1943.32 2249
1944.64 2266
1945.96 2320
1947.28 2279
1948.6 2284
1949.92 2287
1951.24 2320
1952.56 2433
1953.88 2278
1955.2 2277
1956.51 2266
1957.83 2209
1959.14 2262
1960.46 2184
1961.77 2158
1963.08 2264
1964.39 2235
1965.71 2136
1967.02 2156
1968.33 2228
1969.63 2241
1970.94 2146
1972.25 2173
1973.55 2113
1974.86 2173
1976.16 2143
1977.47 2192
1978.77 2230
1980.07 2171
1981.38 2171
1982.68 2186
1983.98 2124
1985.28 2177
1986.57 2119
1987.87 2094
1989.17 2164
1990.47 2105
1991.76 2139
1993.06 2187
1994.35 2108
1995.64 2120
1996.94 2091
1998.23 2175
1999.52 2095
2000.81 2140
2002.1 2149
2003.39 2194
2004.68 2082
2005.96 2079
2007.25 2060
2008.53 2022
2009.82 2064
2011.1 2025
2012.39 2122
2013.67 2032
2014.95 2056
2016.23 2165
2017.51 2094
2018.79 2084
2020.07 2096
2021.35 2033
2022.63 2118
2023.9 2096
2025.18 2097
2026.46 2005
2027.73 2071
2029 2049
2030.28 1993
2031.55 2047
2032.82 2062
2034.09 2191
2035.36 2014
2036.63 2079
2037.9 2039
2039.17 2037
2040.43 2034
2041.7 2108
2042.96 2143
2044.23 2075
2045.49 2095
2046.76 2140
2048.02 2125
2049.28 2038
2050.54 2011
2051.8 2070
2053.06 2072
2054.32 2066
2055.58 2125
2056.84 2098
2058.09 2064
2059.35 2053
2060.6 2084
2061.86 2094
2063.11 2065
2064.37 2065
2065.62 2070
2066.87 2084
2068.12 2013
2069.37 2026
2070.62 2006
2071.87 2100
2073.12 2045
2074.36 2042
2075.61 2024
2076.85 2073
2078.1 2045
2079.34 2038
2080.59 2044
2081.83 2029
2083.07 2023
2084.31 2023
2085.55 2140
2086.79 2033
2088.03 2058
2089.27 2111
2090.51 2071
2091.74 2145
2092.98 2166
2094.22 2129
2095.45 2139
2096.69 2167
2097.92 2170
2099.15 2117
2100.38 2114
2101.61 2115
2102.84 2114
2104.07 2116
2105.3 2034
2106.53 2045
2107.76 2062
2108.99 2076
2110.21 2112
2111.44 2089
2112.66 2066
2113.89 2096
2115.11 2081
2116.33 2361
2117.55 2074
2118.77 2124
2119.99 2133
2121.21 2066
2122.43 2166
2123.65 2052
2124.87 2096
2126.08 2058
2127.3 2124
2128.52 2117
2129.73 2168
2130.94 2109
2132.16 2093
2133.37 2077
2134.58 2086
2135.79 2048
2137 2103
2138.21 2043
2139.42 2111
2140.63 2104
2141.84 2081
2143.04 2186
2144.25 2099
2145.46 2131
2146.66 2024
2147.86 2058
2149.07 2056
2150.27 2086
2151.47 2027
2152.67 2061
2153.87 2017
2155.07 2036
2156.27 2168
2157.47 2042
2158.67 2114
2159.86 2215
2161.06 2148
2162.26 2156
2163.45 1993
2164.64 2073
2165.84 2007
2167.03 2013
2168.22 2041
2169.41 2087
2170.6 2098
2171.79 2043
2172.98 2098
2174.17 2382
2175.36 2107
2176.55 2097
2177.73 2143
2178.92 2048
2180.1 2080
2181.29 2127
2182.47 2146
2183.65 2106
2184.84 2080
2186.02 2077
2187.2 2091
2188.38 2061
2189.56 2017
2190.74 2096
2191.91 2066
2193.09 2107
2194.27 2070
2195.44 2078
2196.62 2113
2197.79 2132
2198.97 2154
2200.14 2156
2201.31 2172
2202.49 2083
2203.66 2093
2204.83 2152
2206 2153
2207.17 2113
2208.33 2083
2209.5 2090
2210.67 1997
2211.83 2138
2213 2035
2214.16 2066
2215.33 2092
2216.49 1943
2217.66 2112
2218.82 2106
2219.98 2084
2221.14 2105
2222.3 2106
2223.46 2097
2224.62 2160
2225.78 2156
2226.93 2166
2228.09 2113
2229.25 2091
2230.4 2117
2231.56 2085
2232.71 2089
2233.86 2078
2235.02 2011
2236.17 2031
2237.32 2006
2238.47 2042
2239.62 2065
2240.77 2075
2241.92 2022
2243.06 2108
2244.21 2032
2245.36 2086
2246.5 1991
2247.65 2045
2248.79 2153
2249.94 2129
2251.08 2140
2252.22 2243
2253.36 2094
2254.5 2139
2255.64 2070
2256.78 2056
2257.92 2083
2259.06 2104
2260.2 2150
2261.34 2033
2262.47 2085
2263.61 2038
2264.74 2021
2265.88 2088
2267.01 2095
2268.14 2051
2269.28 2004
2270.41 2102
2271.54 2100
2272.67 2131
2273.8 2071
2274.93 2096
2276.06 2073
2277.18 2081
2278.31 1994
2279.44 2102
2280.56 2121
2281.69 2111
2282.81 2066
2283.93 2088
2285.06 2024
2286.18 2054
2287.3 2079
2288.42 2061
2289.54 2044
2290.66 2081
2291.78 2052
2292.9 2046
2294.02 2130
2295.13 2144
2296.25 2110
2297.36 2117
2298.48 2093
2299.59 2125
2300.71 2165
2301.82 2105
2302.93 2130
2304.04 2055
2305.15 2127
2306.26 2095
2307.37 2102
2308.48 2105
2309.59 2119
2310.7 2199
2311.81 2050
2312.91 2016
2314.02 2062
2315.12 2030
2316.23 2058
2317.33 2085
2318.43 2032
2319.53 2097
2320.64 2112
2321.74 2077
2322.84 2110
2323.94 2073
2325.04 2067
2326.13 2124
2327.23 2083
2328.33 2057
2329.43 2062
2330.52 2062
2331.62 2041
2332.71 2094
2333.8 2034
2334.9 2140
2335.99 2068
2337.08 2110
2338.17 2056
2339.26 2133
2340.35 2085
2341.44 2125
2342.53 2068
2343.62 2060
2344.71 2023
2345.79 2091
2346.88 2078
2347.96 2152
2349.05 1981
2350.13 2143
2351.22 2014
2352.3 2073
2353.38 2128
2354.46 2078
2355.54 2039
2356.62 2073
2357.7 2079
2358.78 2097
2359.86 2156
2360.93 2110
2362.01 2150
2363.09 2079
2364.16 2103
2365.24 2117
2366.31 2053
2367.39 2077
2368.46 2103
2369.53 2150
2370.6 2098
2371.67 2087
2372.74 2138
2373.81 2075
2374.88 2096
2375.95 2132
2377.02 2055
2378.09 2157
2379.15 2202
2380.22 2080
2381.28 2092
2382.35 2122
2383.41 2086
2384.47 2116
2385.54 2120
2386.6 2113
2387.66 2145
2388.72 2149
2389.78 2129
2390.84 2201
2391.9 2035
2392.96 2067
2394.01 2079
2395.07 2043
2396.13 2150
2397.18 2122
2398.24 2123
2399.29 2055
2400.34 2222
2401.4 2140
2402.45 2156
2403.5 2098
2404.55 2182
2405.6 2149
2406.65 2181
2407.7 2185
2408.75 2132
2409.8 2168
2410.84 2102
2411.89 2143
2412.94 2126
2413.98 2112
2415.03 2177
2416.07 2164
2417.11 2194
2418.16 2165
2419.2 2124
2420.24 2122
2421.28 2149
2422.32 2153
2423.36 2095
2424.4 2245
2425.44 2181
2426.48 2150
2427.51 2598
2428.55 2190
2429.58 2127
2430.62 2143
2431.65 2100
2432.69 2197
2433.72 2145
2434.75 2103
2435.78 2094
2436.82 2144
2437.85 2135
2438.88 2131
2439.91 2127
2440.93 2077
2441.96 2168
2442.99 2138
2444.02 2211
2445.04 2231
2446.07 2159
2447.09 2189
2448.12 2149
2449.14 2115
2450.16 2131
2451.19 2191
2452.21 2146
2453.23 2198
2454.25 2162
2455.27 2178
2456.29 2102
2457.31 2213
2458.33 2124
2459.34 2068
2460.36 2093
2461.38 2053
2462.39 2123
2463.41 2097
2464.42 2061
2465.43 2115
2466.45 2139
2467.46 2114
2468.47 2166
2469.48 2083
2470.49 2130
2471.5 2134
2472.51 2133
2473.52 2076
2474.53 2094
2475.54 2069
2476.54 2108
2477.55 2111
2478.55 2152
2479.56 2053
2480.56 2102
2481.57 2113
2482.57 2171
2483.57 2121
2484.57 2214
2485.57 2161
2486.57 2159
2487.57 2178
2488.57 2239
2489.57 2189
2490.57 2174
2491.57 2155
2492.56 2068
2493.56 2155
2494.55 2227
2495.55 2101
2496.54 2154
2497.54 2069
2498.53 2130
2499.52 2187
2500.51 2071
2501.51 2037
2502.5 2147
2503.49 2096
2504.47 2155
2505.46 2094
2506.45 2190
2507.44 2147
2508.43 2184
2509.41 2171
2510.4 2145
2511.38 2112
2512.37 2086
2513.35 2169
2514.33 2166
2515.32 2095
2516.3 2097
2517.28 2141
2518.26 2131
2519.24 2133
2520.22 2123
2521.2 2198
2522.17 2135
2523.15 2206
2524.13 2090
2525.1 2115
2526.08 2112
2527.05 2118
2528.03 2156
2529 2148
2529.98 2231
2530.95 2189
2531.92 2068
2532.89 2096
2533.86 2069
2534.83 2118
2535.8 2171
2536.77 2120
2537.74 2148
2538.71 2118
2539.67 2124
2540.64 2054
2541.6 2120
2542.57 2108
2543.53 2248
2544.5 2116
2545.46 2089
2546.42 2132
2547.39 2081
2548.35 2116
2549.31 2156
2550.27 2194
2551.23 2097
2552.19 2203
2553.14 2113
2554.1 2241
2555.06 2153
2556.02 2118
2556.97 2126
2557.93 2135
2558.88 2183
2559.84 2086
2560.79 2116
2561.74 2128
2562.69 2091
2563.64 2155
2564.6 2133
2565.55 2132
2566.5 2108
2567.44 2158
2568.39 2111
2569.34 2226
2570.29 2177
2571.24 2085
2572.18 2149
2573.13 2458
2574.07 2128
2575.02 2127
2575.96 2234
2576.9 2158
2577.84 2145
2578.79 2148
2579.73 2215
2580.67 2108
2581.61 2112
2582.55 2155
2583.49 2149
2584.42 2139
2585.36 2104
2586.3 2105
2587.23 2147
2588.17 2090
2589.1 2138
2590.04 2088
2590.97 2099
2591.9 2086
2592.84 2197
2593.77 2089
2594.7 2152
2595.63 2171
2596.56 2076
2597.49 2147
2598.42 2127
2599.35 2169
2600.28 2158
2601.2 2085
2602.13 2118
2603.06 2398
2603.98 2150
2604.9 2129
2605.83 2114
2606.75 2128
2607.67 2113
2608.6 2137
2609.52 2142
2610.44 2109
2611.36 2128
2612.28 2075
2613.2 2134
2614.12 2164
2615.04 2162
2615.95 2152
2616.87 2154
2617.79 2081
2618.7 2088
2619.62 2133
2620.53 2105
2621.44 2100
2622.36 2123
2623.27 2112
2624.18 2142
2625.09 2094
2626 2097
2626.91 2127
2627.82 2112
2628.73 2104
2629.64 2092
2630.55 2178
2631.45 2070
2632.36 2145
2633.26 2124
2634.17 2129
2635.07 2141
2635.98 2145
2636.88 2122
2637.78 2144
2638.69 2142
2639.59 2219
2640.49 2250
2641.39 2149
2642.29 2177
2643.19 2164
2644.09 2194
2644.98 2177
2645.88 2155
2646.78 2147
2647.67 2188
2648.57 2153
2649.46 2139
2650.36 2167
2651.25 2102
2652.14 2196
2653.04 2398
2653.93 2119
2654.82 2166
2655.71 2125
2656.6 2137
2657.49 2168
2658.38 2159
2659.27 2132
2660.15 2111
2661.04 2130
2661.93 2208
2662.81 2086
2663.7 2120
2664.58 2166
2665.47 2101
2666.35 2069
2667.23 2240
2668.11 2117
2669 2181
2669.88 2151
2670.76 2067
2671.64 2105
2672.52 2083
2673.39 2102
2674.27 2090
2675.15 2118
2676.03 2082
2676.9 2127
2677.78 2068
2678.65 2124
2679.53 2080
2680.4 2148
2681.27 2175
2682.14 2148
2683.02 2081
2683.89 2148
2684.76 2225
2685.63 2138
2686.5 2181
2687.37 2083
2688.23 2092
2689.1 2158
2689.97 2125
2690.83 2090
2691.7 2102
2692.56 2069
2693.43 2116
2694.29 2102
2695.16 2084
2696.02 2085
2696.88 2099
2697.74 2101
2698.6 2105
2699.46 2084
2700.32 2078
2701.18 2194
2702.04 2119
2702.9 2146
2703.76 2033
2704.61 2137
2705.47 2105
2706.32 2087
2707.18 2088
2708.03 2115
2708.89 2083
2709.74 2083
2710.59 2110
2711.44 2081
2712.29 2098
2713.15 2119
2713.99 2123
2714.84 2093
2715.69 2166
2716.54 2100
2717.39 2075
2718.24 2190
2719.08 2042
2719.93 2105
2720.77 2113
2721.62 2127
2722.46 2100
2723.3 2037
2724.15 2106
2724.99 2238
2725.83 2123
2726.67 2112
2727.51 2134
2728.35 2084
2729.19 2080
2730.03 2142
2730.87 2060
2731.7 2089
2732.54 2104
2733.38 2097
2734.21 2157
2735.05 2108
2735.88 2103
2736.71 2096
2737.55 2107
2738.38 2095
2739.21 2117
2740.04 2270
2740.87 2033
2741.7 2099
2742.53 2074
2743.36 2142
2744.19 2105
2745.02 2107
2745.84 2143
2746.67 2133
2747.5 2152
2748.32 2190
2749.15 2138
2749.97 2171
2750.79 2063
2751.62 2101
2752.44 2109
2753.26 2112
2754.08 2079
2754.9 2095
2755.72 2083
2756.54 2115
2757.36 2096
2758.17 2071
2758.99 2067
2759.81 2130
2760.62 2090
2761.44 2089
2762.25 2226
2763.07 2331
2763.88 2092
2764.7 2148
2765.51 2055
2766.32 2092
2767.13 2126
2767.94 2096
2768.75 2113
2769.56 2155
2770.37 2060
2771.18 2121
2771.98 2105
2772.79 2054
2773.6 2114
2774.4 2049
2775.21 2042
2776.01 2098
2776.82 2093
2777.62 2061
2778.42 2066
2779.22 2129
2780.03 2140
2780.83 2087
2781.63 2199
2782.43 2085
2783.23 2143
2784.02 2124
2784.82 2094
2785.62 2135
2786.42 2055
2787.21 2043
2788.01 2068
2788.8 2105
2789.6 2059
2790.39 2155
2791.18 2103
2791.97 2089
2792.77 2062
2793.56 2054
2794.35 2051
2795.14 2111
2795.93 2043
2796.71 2065
2797.5 2093
2798.29 2102
2799.08 2063
2799.86 2142
2800.65 2098
2801.43 2095
2802.22 2112
2803 2046
2803.78 2072
2804.57 2125
2805.35 2058
2806.13 2068
2806.91 2053
2807.69 2081
2808.47 2170
2809.25 2117
2810.03 2109
2810.81 2054
2811.58 2059
2812.36 2116
2813.13 2075
2813.91 2059
2814.68 2028
2815.46 2071
2816.23 2069
2817 2106
2817.78 2054
2818.55 2073
2819.32 2063
2820.09 2127
2820.86 2093
2821.63 2112
2822.4 2098
2823.16 2102
2823.93 2114
2824.7 2119
2825.46 2073
2826.23 2080
2826.99 2037
2827.76 2068
2828.52 2066
2829.28 2043
2830.05 2049
2830.81 2074
2831.57 2112
2832.33 2013
2833.09 2166
2833.85 2051
2834.61 2069
2835.37 2032
2836.12 2074
2836.88 2112
2837.64 2098
2838.39 2046
2839.15 2100
2839.9 2104
2840.65 2077
2841.41 2017
2842.16 2061
2842.91 1992
2843.66 2085
2844.41 2083
2845.16 2075
2845.91 2167
2846.66 2084
2847.41 2126
2848.16 2095
2848.91 2074
2849.65 2039
2850.4 2156
2851.14 2068
2851.89 2098
2852.63 2132
2853.37 2058
2854.12 2065
2854.86 2057
2855.6 2057
2856.34 2112
2857.08 2104
2857.82 2114
2858.56 2043
2859.3 2194
2860.04 2100
2860.77 2061
2861.51 2117
2862.24 2078
2862.98 2125
2863.71 2101
2864.45 2158
2865.18 2066
2865.91 2124
2866.65 2134
2867.38 2115
2868.11 2128
2868.84 2077
2869.57 2100
2870.3 2189
2871.03 2198
2871.75 2129
2872.48 2239
2873.21 2368
2873.93 2639
2874.66 2992
2875.38 3035
2876.11 3186
2876.83 3496
2877.55 3502
2878.28 3505
2879 3362
2879.72 3160
2880.44 3180
2881.16 2812
2881.88 2674
2882.6 2589
2883.31 2373
2884.03 2349
2884.75 2280
2885.46 2281
2886.18 2222
2886.89 2202
2887.61 2234
2888.32 2164
2889.03 2151
2889.75 2084
2890.46 2120
2891.17 2124
2891.88 2160
2892.59 2127
2893.3 2216
2894.01 2093
2894.71 2116
2895.42 2029
2896.13 2119
2896.83 2073
2897.54 2062
2898.24 2092
2898.95 2074
2899.65 2059
2900.35 2062
2901.06 2096
2901.76 2081
2902.46 2065
2903.16 2398
2903.86 2032
2904.56 2064
2905.25 2055
