scanname 扫描257
timestamp 1/1/1970 00:28
scancount 1
laserwavenum 850.5
measurementstate Unknown
scanmode Identification
snr 10.4544 10.4544 10.4544
replacelist 0
peaks 18
735.42 0.19039 0 5.24534 0.000812452
799.013 0.137573 0 7.89202 0.000555394
835.385 0.173954 0 20.1286 0.0010067
910.661 0.140313 0 16.8004 0.000541149
929.072 0.102598 0 11.1437 0.000319309
1041.72 0.0890625 0 4.50258 0.000104048
1076.82 0.118209 0 11.8737 0.000340801
1124.61 0.0917205 0 2.08172 9.28535e-05
1199.54 0.114086 0 4.57457 0.000193397
1309.75 0.206177 0 7.40287 0.000289213
1336.8 0.269644 0 16.4289 0.000653596
1373.95 0.0815854 0 3.8537 0.000137709
1418.45 0.111423 0 6.83155 0.000233723
1446.67 0.113418 0 3.47982 0.000140238
1536.32 0.280182 0 12.7742 0.0006197
1596.07 0.0582714 0 5.40413 0.000185794
1629.04 0.053891 0 5.0867 0.000198912
3099.77 0.0972778 0 3.31386 0.000166854
finalresult No match found 1A3666	6.86996e-18
spectrum 2048
0 -12.2271
2.86447 -12.3642
5.72895 -8.24848
8.59342 -8.53624
11.4579 -3.55237
14.3224 -2.47235
17.1868 -2.28813
20.0513 -0.225956
22.9158 -0.54964
25.7803 0.640017
28.6447 -3.55922
31.5092 15.8931
34.3737 -2.12604
37.2382 -0.75054
40.1026 -3.62629
42.9671 -1.88279
45.8316 0.732348
48.696 0.575561
51.5605 1.39548
54.425 -1.22776
57.2895 5.40124
60.1539 -1.24993
63.0184 -0.151799
65.8829 1.55381
68.7474 1.6018
71.6118 0.324726
74.4763 3.92422
77.3408 -2.06615
80.2053 -1.71753
83.0697 -0.0988733
85.9342 -0.627605
88.7987 0.702783
91.6632 0.197834
94.5276 -2.01899
97.3921 4.00166
100.257 -2.00613
103.121 -4.30648
105.986 -3.91341
108.85 2.19881
111.714 -1.01383
114.579 -0.697621
117.443 -2.53906
120.308 0.630607
123.172 1.37589
126.037 -1.3644
128.901 -0.102805
131.766 -0.14567
134.63 -2.82025
137.495 -0.20226
140.359 -1.84481
143.224 -1.66598
146.088 0.441024
148.953 -3.91747
151.817 -0.956672
154.682 -2.06976
157.546 -2.05441
160.411 -0.442271
163.275 -4.18935
166.139 -2.22514
169.004 0.969277
171.868 0.490964
174.733 -2.26359
177.597 -2.86137
180.462 0.00376675
183.326 0.916139
186.191 -0.708358
189.055 -1.5456
191.92 -1.3223
194.784 -0.491749
197.649 -0.276536
200.513 -1.04934
203.378 2.07708
206.242 -1.89581
209.107 0.676481
211.971 -1.5938
214.836 -3.23143
217.7 2.02492
220.564 -3.51491
223.429 0.202795
226.293 1.54054
229.158 1.28502
232.022 -1.59351
234.887 -0.228057
237.751 -2.48623
240.616 -1.03791
243.48 -0.70972
246.345 -2.82395
249.209 2.65743
252.074 -1.47294
254.938 -0.363236
257.803 -1.03402
260.667 -0.608153
263.532 0.0645219
266.396 1.37482
269.26 -1.50654
272.125 -2.48853
274.989 1.27717
277.854 -2.16712
280.718 -2.23856
283.583 -2.37093
286.447 9.85449
289.312 -0.7366
292.176 -1.9153
295.041 3.40164
297.905 3.61626
300.77 -2.22096
303.634 -1.686
306.499 -1.53377
309.363 -2.98271
312.228 3.13518
315.092 -1.31294
317.957 -2.57038
320.821 -2.58968
323.686 4.08067
326.55 -0.228826
329.414 5.0648
332.279 -0.870004
335.143 -0.534883
338.008 4.83344
340.872 -2.72517
343.737 -2.54928
346.601 -2.17227
349.466 -3.47423
352.33 0.709418
355.195 5.78404
358.059 -1.8041
360.924 0.789005
363.788 -2.13579
366.653 -0.636927
369.517 -1.21699
372.382 0.803483
375.246 -0.336515
378.111 6.13516
380.975 -3.01973
383.839 0.942107
386.704 -3.80194
389.568 -1.84556
392.433 0.604878
395.297 3.34697
398.162 1.31798
401.026 0.707772
403.891 -3.1877
406.755 -0.928889
409.62 -1.75292
412.484 -1.68298
415.349 -1.41693
418.213 1.93571
421.078 -1.99833
423.942 2.50004
426.807 0.250654
429.671 -2.5689
432.535 -1.46697
435.4 0.397215
438.264 0.246157
441.129 1.5614
443.993 -0.413523
446.858 -2.68883
449.722 -0.639382
452.587 -0.245895
455.451 -2.07844
458.316 -1.731
461.18 -3.79123
464.045 1.26615
466.909 -0.438824
469.774 -2.85298
472.638 6.52232
475.503 -3.18098
478.367 0.853492
481.232 -2.86209
484.096 -3.23286
486.961 0.270948
489.825 -0.914322
492.689 0.391061
495.554 0.596854
498.418 -0.679104
501.283 -3.0611
504.147 2.62506
507.012 -2.36708
509.876 -3.39182
512.741 1.06322
515.605 -2.38107
518.47 1.27224
521.334 1.39289
524.199 -1.60335
527.063 0.706934
529.928 -1.64939
532.792 -4.59485
535.657 -0.107722
538.521 -0.139445
541.385 0.305842
544.25 0.0895938
547.115 2.0988
549.979 -2.00452
552.843 -1.15279
555.708 -0.261616
558.572 0.279287
561.437 -2.23866
564.301 -1.03898
567.166 0.225377
570.03 3.35834
572.895 -1.79763
575.759 0.899999
578.624 -0.708845
581.488 1.53608
584.353 -0.475102
587.217 -0.638053
590.082 -1.46596
592.946 1.11327
595.81 0.295371
598.675 2.66432
601.539 0.511991
604.404 1.19708
607.268 1.05323
610.133 2.26505
612.997 1.075
615.862 2.66831
618.726 -0.435992
621.591 1.38531
624.455 -0.268233
627.32 1.40196
630.184 1.10629
633.049 1.74386
635.913 0.114071
638.778 1.02721
641.642 0.14136
644.507 1.10668
647.371 0.515127
650.235 0.946521
653.1 0.398254
655.964 0.994407
658.829 0.363651
661.693 0.888453
664.558 0.43571
667.422 1.03414
670.287 0.578699
673.151 0.830296
676.016 0.450522
678.88 1.02759
681.745 0.714532
684.609 1.10627
687.474 0.781983
690.338 0.892747
693.203 0.752052
696.067 1.04875
698.932 0.882151
701.796 1.21957
704.66 1.01267
707.525 1.09335
710.389 0.715816
713.254 0.995588
716.118 0.988881
718.983 1.1392
721.847 0.962389
724.712 1.19775
727.576 1.19242
730.441 1.46512
733.305 1.73546
736.17 2.23444
739.034 2.12634
741.899 1.39518
744.763 0.902733
747.628 0.826605
750.492 0.770357
753.357 0.77587
756.221 0.738165
759.086 0.751514
761.95 0.709273
764.814 0.771955
767.679 0.969832
770.543 0.767845
773.408 0.738177
776.272 0.734772
779.137 0.789382
782.001 0.799426
784.866 0.840447
787.73 0.85458
790.595 0.966068
793.459 0.965799
796.324 1.12097
799.188 1.30027
802.053 1.604
804.917 1.51099
807.782 0.835558
810.646 0.475273
813.51 0.581859
816.375 0.590089
819.239 0.679608
822.104 0.706671
824.968 0.858397
827.833 0.970128
830.697 1.23981
833.562 1.5512
836.426 2.19378
839.291 2.00388
842.155 0.932715
845.02 0.429029
847.884 0.399864
850.749 0.372313
853.613 0.479951
856.478 0.447728
859.342 0.509278
862.207 0.497064
865.071 0.574299
867.935 0.526471
870.8 0.568309
873.664 0.555654
876.529 0.615788
879.393 0.595279
882.258 0.636729
885.122 0.615109
887.987 0.649736
890.851 0.652365
893.716 0.712369
896.58 0.745889
899.445 0.844492
902.309 0.907754
905.174 1.11047
908.038 1.29465
910.903 1.55654
913.767 1.61161
916.632 1.08517
919.496 0.770911
922.36 0.767634
925.225 0.9073
928.089 1.16181
930.954 1.25262
933.818 0.869333
936.683 0.640728
939.547 0.591087
942.412 0.591148
945.276 0.576195
948.141 0.578449
951.005 0.594054
953.87 0.605815
956.734 0.612932
959.599 0.625612
962.463 0.611577
965.328 0.619574
968.192 0.620691
971.057 0.654209
973.921 0.641232
976.785 0.659489
979.65 0.657267
982.514 0.678587
985.379 0.662093
988.243 0.674633
991.108 0.663907
993.972 0.695382
996.837 0.682416
999.701 0.7057
1002.57 0.68374
1005.43 0.702354
1008.29 0.679326
1011.16 0.718559
1014.02 0.714841
1016.89 0.744618
1019.75 0.75031
1022.62 0.755693
1025.48 0.725922
1028.35 0.77354
1031.21 0.76533
1034.07 0.828369
1036.94 0.846377
1039.8 0.940014
1042.67 0.918524
1045.53 0.862666
1048.4 0.783047
1051.26 0.783453
1054.13 0.764841
1056.99 0.801706
1059.86 0.785898
1062.72 0.846486
1065.58 0.83668
1068.45 0.911401
1071.31 0.932661
1074.18 1.11294
1077.04 1.24862
1079.91 1.31432
1082.77 1.03115
1085.64 0.838604
1088.5 0.725526
1091.36 0.720979
1094.23 0.713462
1097.09 0.739737
1099.96 0.728319
1102.82 0.745453
1105.69 0.759977
1108.55 0.801304
1111.42 0.782488
1114.28 0.817824
1117.14 0.847011
1120.01 0.896456
1122.87 0.95249
1125.74 0.940364
1128.6 0.866597
1131.47 0.845899
1134.33 0.835384
1137.2 0.782974
1140.06 0.793641
1142.92 0.784716
1145.79 0.79337
1148.65 0.797548
1151.52 0.851982
1154.38 0.8429
1157.25 0.861384
1160.11 0.848564
1162.98 0.846203
1165.84 0.841087
1168.71 0.876922
1171.57 0.869527
1174.43 0.918094
1177.3 0.878971
1180.16 0.914704
1183.03 0.877544
1185.89 0.927356
1188.76 0.921754
1191.62 1.01129
1194.49 1.02024
1197.35 1.16337
1200.21 1.28013
1203.08 1.12448
1205.94 0.925733
1208.81 0.929944
1211.67 0.92634
1214.54 0.968235
1217.4 0.934766
1220.27 0.987552
1223.13 0.962497
1225.99 1.01548
1228.86 0.975177
1231.72 1.05867
1234.59 1.02463
1237.45 1.06936
1240.32 1.05372
1243.18 1.11994
1246.05 1.08499
1248.91 1.13008
1251.78 1.11484
1254.64 1.12966
1257.5 1.10015
1260.37 1.13171
1263.23 1.11659
1266.1 1.18318
1268.96 1.18921
1271.83 1.23446
1274.69 1.25333
1277.56 1.33894
1280.42 1.39703
1283.28 1.46541
1286.15 1.47037
1289.01 1.48991
1291.88 1.52402
1294.74 1.59258
1297.61 1.66705
1300.47 1.77944
1303.34 1.88068
1306.2 2.0263
1309.06 2.14688
1311.93 2.1063
1314.79 1.93863
1317.66 1.77712
1320.52 1.79098
1323.39 1.86311
1326.25 2.04954
1329.12 2.23123
1331.98 2.45774
1334.84 2.63168
1337.71 2.79962
1340.57 2.72231
1343.44 2.40054
1346.3 1.92051
1349.17 1.77329
1352.03 1.65733
1354.9 1.41343
1357.76 0.976195
1360.62 0.754474
1363.49 0.663364
1366.35 0.750885
1369.22 0.75647
1372.08 0.80969
1374.95 0.822492
1377.81 0.848058
1380.68 0.710105
1383.54 0.667727
1386.41 0.620435
1389.27 0.670042
1392.13 0.596213
1395 0.614685
1397.86 0.585518
1400.73 0.670358
1403.59 0.705819
1406.46 0.807799
1409.32 0.855522
1412.19 1.01527
1415.05 1.10527
1417.91 1.18384
1420.78 1.1005
1423.64 1.01098
1426.51 0.90764
1429.37 0.879461
1432.24 0.875812
1435.1 0.949057
1437.97 1.00957
1440.83 1.10467
1443.69 1.1206
1446.56 1.14507
1449.42 1.103
1452.29 1.10457
1455.15 1.01485
1458.02 0.962578
1460.88 0.974764
1463.75 0.962141
1466.61 0.986064
1469.47 1.02342
1472.34 0.992677
1475.2 1.05972
1478.07 1.09538
1480.93 1.1383
1483.8 1.19453
1486.66 1.24659
1489.53 1.26274
1492.39 1.36007
1495.26 1.40154
1498.12 1.46073
1500.98 1.54695
1503.85 1.61893
1506.71 1.60761
1509.58 1.77081
1512.44 1.89519
1515.31 1.94012
1518.17 2.06647
1521.04 2.0124
1523.9 2.17094
1526.76 2.25568
1529.63 2.48932
1532.49 2.59319
1535.36 2.95373
1538.22 2.86044
1541.09 2.63559
1543.95 2.31083
1546.82 2.10074
1549.68 1.74912
1552.54 1.51318
1555.41 1.39132
1558.27 1.17832
1561.14 0.94896
1564 0.795395
1566.87 0.588578
1569.73 0.478901
1572.6 0.400722
1575.46 0.362882
1578.33 0.339352
1581.19 0.366548
1584.05 0.348794
1586.92 0.415316
1589.78 0.447659
1592.65 0.53405
1595.51 0.621142
1598.38 0.639425
1601.24 0.512706
1604.11 0.438188
1606.97 0.363024
1609.83 0.354857
1612.7 0.341544
1615.56 0.368065
1618.43 0.351796
1621.29 0.403277
1624.16 0.403405
1627.02 0.523588
1629.89 0.615848
1632.75 0.601381
1635.61 0.36514
1638.48 0.320585
1641.34 0.268713
1644.21 0.260678
1647.07 0.246658
1649.94 0.286821
1652.8 0.250857
1655.67 0.284395
1658.53 0.277664
1661.39 0.269455
1664.26 0.269723
1667.12 0.291938
1669.99 0.298142
1672.85 0.299981
1675.72 0.277622
1678.58 0.313618
1681.45 0.294737
1684.31 0.272255
1687.18 0.29838
1690.04 0.319326
1692.9 0.317264
1695.77 0.296339
1698.63 0.307514
1701.5 0.300475
1704.36 0.320819
1707.23 0.319644
1710.09 0.319881
1712.96 0.299576
1715.82 0.310052
1718.68 0.324121
1721.55 0.330152
1724.41 0.307892
1727.28 0.335179
1730.14 0.332015
1733.01 0.342133
1735.87 0.30512
1738.74 0.324777
1741.6 0.310987
1744.46 0.32061
1747.33 0.314631
1750.19 0.341885
1753.06 0.31766
1755.92 0.34616
1758.79 0.358811
1761.65 0.355626
1764.52 0.333594
1767.38 0.359374
1770.24 0.333955
1773.11 0.354846
1775.97 0.319758
1778.84 0.362816
1781.7 0.315146
1784.57 0.341629
1787.43 0.34753
1790.3 0.351583
1793.16 0.326356
1796.02 0.373295
1798.89 0.321161
1801.75 0.351705
1804.62 0.359984
1807.48 0.386733
1810.35 0.374208
1813.21 0.403452
1816.08 0.369545
1818.94 0.402599
1821.81 0.379924
1824.67 0.389209
1827.53 0.349445
1830.4 0.337644
1833.26 0.333602
1836.13 0.358367
1838.99 0.346005
1841.86 0.343421
1844.72 0.310309
1847.59 0.366521
1850.45 0.339745
1853.31 0.362757
1856.18 0.337165
1859.04 0.339299
1861.91 0.334288
1864.77 0.323085
1867.64 0.341283
1870.5 0.355102
1873.37 0.340948
1876.23 0.349975
1879.09 0.337559
1881.96 0.298548
1884.82 0.33919
1887.69 0.325741
1890.55 0.339402
1893.42 0.347534
1896.28 0.353742
1899.15 0.330899
1902.01 0.332156
1904.87 0.310425
1907.74 0.328764
1910.6 0.311646
1913.47 0.31724
1916.33 0.306394
1919.2 0.32156
1922.06 0.304355
1924.93 0.343253
1927.79 0.295077
1930.66 0.352699
1933.52 0.296998
1936.38 0.299114
1939.25 0.271685
1942.11 0.30324
1944.98 0.252162
1947.84 0.301442
1950.71 0.287826
1953.57 0.302765
1956.44 0.254553
1959.3 0.290964
1962.16 0.261321
1965.03 0.287385
1967.89 0.254298
1970.76 0.284989
1973.62 0.234607
1976.49 0.271077
1979.35 0.254493
1982.22 0.282572
1985.08 0.250748
1987.94 0.282064
1990.81 0.218522
1993.67 0.293611
1996.54 0.293551
1999.4 0.298291
2002.27 0.249962
2005.13 0.279283
2008 0.264059
2010.86 0.277383
2013.72 0.237064
2016.59 0.279467
2019.45 0.237458
2022.32 0.264643
2025.18 0.251503
2028.05 0.262484
2030.91 0.25888
2033.78 0.247369
2036.64 0.240646
2039.51 0.248318
2042.37 0.276399
2045.23 0.270145
2048.1 0.289328
2050.96 0.318324
2053.83 0.30698
2056.69 0.33568
2059.56 0.346634
2062.42 0.333719
2065.29 0.318798
2068.15 0.320222
2071.01 0.31188
2073.88 0.298494
2076.74 0.323016
2079.61 0.340372
2082.47 0.351518
2085.34 0.359921
2088.2 0.378399
2091.07 0.348283
2093.93 0.354172
2096.79 0.336093
2099.66 0.36644
2102.52 0.339346
2105.39 0.364341
2108.25 0.342838
2111.12 0.357581
2113.98 0.333688
2116.85 0.360252
2119.71 0.345162
2122.58 0.392164
2125.44 0.363303
2128.3 0.360512
2131.17 0.330428
2134.03 0.333356
2136.9 0.256468
2139.76 0.316609
2142.63 0.299634
2145.49 0.341291
2148.36 0.291833
2151.22 0.287534
2154.08 0.251037
2156.95 0.311018
2159.81 0.280701
2162.68 0.269171
2165.54 0.237155
2168.41 0.32594
2171.27 0.281474
2174.14 0.319035
2177 0.314332
2179.86 0.371202
2182.73 0.314037
2185.59 0.364901
2188.46 0.324124
2191.32 0.345373
2194.19 0.300179
2197.05 0.38075
2199.92 0.324591
2202.78 0.3331
2205.64 0.335379
2208.51 0.372425
2211.37 0.319867
2214.24 0.34645
2217.1 0.332978
2219.97 0.360466
2222.83 0.349046
2225.7 0.35903
2228.56 0.37454
2231.43 0.397534
2234.29 0.361493
2237.15 0.401123
2240.02 0.396146
2242.88 0.39718
2245.75 0.391494
2248.61 0.369239
2251.48 0.386465
2254.34 0.406069
2257.21 0.421032
2260.07 0.417192
2262.93 0.425485
2265.8 0.420532
2268.66 0.444223
2271.53 0.437258
2274.39 0.457463
2277.26 0.468268
2280.12 0.466584
2282.99 0.450165
2285.85 0.48534
2288.71 0.452893
2291.58 0.463623
2294.44 0.488088
2297.31 0.476477
2300.17 0.501923
2303.04 0.491428
2305.9 0.485988
2308.77 0.500497
2311.63 0.480499
2314.49 0.516976
2317.36 0.514316
2320.22 0.523884
2323.09 0.522951
2325.95 0.527995
2328.82 0.508147
2331.68 0.527761
2334.55 0.511804
2337.41 0.526627
2340.28 0.515738
2343.14 0.529127
2346 0.522431
2348.87 0.539983
2351.73 0.532858
2354.6 0.56142
2357.46 0.509864
2360.33 0.501983
2363.19 0.500535
2366.06 0.525538
2368.92 0.493309
2371.78 0.522026
2374.65 0.510701
2377.51 0.523538
2380.38 0.50744
2383.24 0.516339
2386.11 0.492183
2388.97 0.513146
2391.84 0.49722
2394.7 0.516451
2397.56 0.528733
2400.43 0.522087
2403.29 0.507327
2406.16 0.504255
2409.02 0.505174
2411.89 0.504646
2414.75 0.487461
2417.62 0.492384
2420.48 0.500193
2423.34 0.492045
2426.21 0.508129
2429.07 0.503662
2431.94 0.526769
2434.8 0.500449
2437.67 0.509997
2440.53 0.513313
2443.4 0.516811
2446.26 0.497502
2449.12 0.487188
2451.99 0.510096
2454.85 0.50413
2457.72 0.501109
2460.58 0.520877
2463.45 0.500887
2466.31 0.509433
2469.18 0.529092
2472.04 0.535743
2474.91 0.510635
2477.77 0.533977
2480.63 0.523423
2483.5 0.509359
2486.36 0.50317
2489.23 0.519422
2492.09 0.535622
2494.96 0.51451
2497.82 0.514517
2500.69 0.535797
2503.55 0.497967
2506.41 0.521044
2509.28 0.526602
2512.14 0.548971
2515.01 0.506647
2517.87 0.509989
2520.74 0.501058
2523.6 0.523327
2526.47 0.513339
2529.33 0.527151
2532.19 0.500638
2535.06 0.515511
2537.92 0.5104
2540.79 0.52654
2543.65 0.519304
2546.52 0.532336
2549.38 0.503714
2552.25 0.529009
2555.11 0.523165
2557.98 0.549209
2560.84 0.518575
2563.7 0.530389
2566.57 0.527738
2569.43 0.553181
2572.3 0.55477
2575.16 0.551924
2578.03 0.531159
2580.89 0.556907
2583.76 0.528871
2586.62 0.533818
2589.48 0.549828
2592.35 0.572864
2595.21 0.555999
2598.08 0.557726
2600.94 0.552247
2603.81 0.550342
2606.67 0.57324
2609.54 0.565117
2612.4 0.560902
2615.26 0.573462
2618.13 0.575374
2620.99 0.576636
2623.86 0.570238
2626.72 0.580213
2629.59 0.592339
2632.45 0.583178
2635.32 0.603404
2638.18 0.590534
2641.04 0.579272
2643.91 0.578139
2646.77 0.594327
2649.64 0.596769
2652.5 0.610645
2655.37 0.608585
2658.23 0.59871
2661.1 0.601668
2663.96 0.600641
2666.82 0.60717
2669.69 0.618018
2672.55 0.606554
2675.42 0.624009
2678.28 0.603315
2681.15 0.626535
2684.01 0.612865
2686.88 0.612532
2689.74 0.599087
2692.61 0.612806
2695.47 0.599003
2698.33 0.60495
2701.2 0.614552
2704.06 0.627354
2706.93 0.606981
2709.79 0.622958
2712.66 0.617268
2715.52 0.634951
2718.39 0.616681
2721.25 0.623956
2724.11 0.626241
2726.98 0.63108
2729.84 0.607736
2732.71 0.613898
2735.57 0.604096
2738.44 0.606024
2741.3 0.618072
2744.17 0.635317
2747.03 0.617138
2749.89 0.6189
2752.76 0.616193
2755.62 0.627485
2758.49 0.618479
2761.35 0.621551
2764.22 0.616719
2767.08 0.618738
2769.95 0.62263
2772.81 0.629153
2775.68 0.615678
2778.54 0.618685
2781.4 0.624606
2784.27 0.64119
2787.13 0.621997
2790 0.629057
2792.86 0.617362
2795.73 0.634096
2798.59 0.641177
2801.46 0.636303
2804.32 0.63239
2807.18 0.629449
2810.05 0.623051
2812.91 0.638586
2815.78 0.620703
2818.64 0.616894
2821.51 0.641262
2824.37 0.625741
2827.24 0.637543
2830.1 0.648793
2832.96 0.656689
2835.83 0.640438
2838.69 0.644091
2841.56 0.639485
2844.42 0.638848
2847.29 0.65912
2850.15 0.663863
2853.02 0.649503
2855.88 0.657845
2858.74 0.656359
2861.61 0.684403
2864.47 0.659875
2867.34 0.656939
2870.2 0.688856
2873.07 0.698498
2875.93 0.694517
2878.8 0.698432
2881.66 0.687146
2884.53 0.687416
2887.39 0.683352
2890.25 0.697694
2893.12 0.672065
2895.98 0.674945
2898.85 0.678498
2901.71 0.679542
2904.58 0.673377
2907.44 0.683321
2910.31 0.650855
2913.17 0.646446
2916.03 0.64379
2918.9 0.670242
2921.76 0.650963
2924.63 0.643895
2927.49 0.629096
2930.36 0.630382
2933.22 0.62202
2936.09 0.654986
2938.95 0.639387
2941.81 0.635286
2944.68 0.636097
2947.54 0.65164
2950.41 0.616892
2953.27 0.620613
2956.14 0.635919
2959 0.642745
2961.87 0.626197
2964.73 0.625825
2967.59 0.620597
2970.46 0.642153
2973.32 0.634696
2976.19 0.653276
2979.05 0.640196
2981.92 0.654809
2984.78 0.640536
2987.65 0.621399
2990.51 0.635627
2993.38 0.631785
2996.24 0.633894
2999.1 0.651089
3001.97 0.640618
3004.83 0.641006
3007.7 0.647869
3010.56 0.637132
3013.43 0.651278
3016.29 0.673258
3019.16 0.670952
3022.02 0.67188
3024.88 0.667718
3027.75 0.652876
3030.61 0.630765
3033.48 0.645194
3036.34 0.672976
3039.21 0.68506
3042.07 0.667289
3044.94 0.67586
3047.8 0.674954
3050.66 0.678687
3053.53 0.7134
3056.39 0.723182
3059.26 0.720053
3062.12 0.707508
3064.99 0.718395
3067.85 0.712263
3070.72 0.737963
3073.58 0.727736
3076.44 0.770696
3079.31 0.769529
3082.17 0.794011
3085.04 0.798315
3087.9 0.821243
3090.77 0.846699
3093.63 0.900112
3096.5 0.932115
3099.36 0.97752
3102.23 0.988962
3105.09 0.955358
3107.95 0.82372
3110.82 0.744961
3113.68 0.669807
3116.55 0.632123
3119.41 0.587854
3122.28 0.584345
3125.14 0.591903
3128.01 0.612299
3130.87 0.582157
3133.73 0.613074
3136.6 0.619542
3139.46 0.62479
3142.33 0.607863
3145.19 0.596535
3148.06 0.598212
3150.92 0.62136
3153.79 0.63333
3156.65 0.624666
3159.51 0.600927
3162.38 0.61317
3165.24 0.614897
3168.11 0.617284
3170.97 0.607684
3173.84 0.625192
3176.7 0.594503
3179.57 0.629464
3182.43 0.621398
3185.29 0.611371
3188.16 0.625374
3191.02 0.656118
3193.89 0.637788
3196.75 0.621532
3199.62 0.627364
3202.48 0.629569
3205.35 0.624088
3208.21 0.610371
3211.07 0.62449
3213.94 0.601983
3216.8 0.605318
3219.67 0.624958
3222.53 0.622127
3225.4 0.605081
3228.26 0.619513
3231.13 0.628439
3233.99 0.637489
3236.86 0.637308
3239.72 0.622837
3242.58 0.608909
3245.45 0.631393
3248.31 0.629774
3251.18 0.627859
3254.04 0.635035
3256.91 0.648334
3259.77 0.635647
3262.64 0.615697
3265.5 0.59723
3268.36 0.643558
3271.23 0.635141
3274.09 0.635817
3276.96 0.621314
3279.82 0.637287
3282.69 0.653311
3285.55 0.653432
3288.42 0.653236
3291.28 0.671215
3294.14 0.663114
3297.01 0.632812
3299.87 0.62594
3302.74 0.644874
3305.6 0.639239
3308.47 0.645934
3311.33 0.644122
3314.2 0.635278
3317.06 0.65312
3319.93 0.672006
3322.79 0.630729
3325.65 0.667886
3328.52 0.63996
3331.38 0.647922
3334.25 0.636161
3337.11 0.636955
3339.98 0.644681
3342.84 0.666637
3345.71 0.656671
3348.57 0.661773
3351.43 0.643294
3354.3 0.641965
3357.16 0.654631
3360.03 0.650471
3362.89 0.62357
3365.76 0.677758
3368.62 0.652376
3371.49 0.650858
3374.35 0.639173
3377.21 0.638443
3380.08 0.644398
3382.94 0.638624
3385.81 0.6398
3388.67 0.662817
3391.54 0.644986
3394.4 0.636584
3397.27 0.660312
3400.13 0.65987
3402.99 0.636985
3405.86 0.65347
3408.72 0.626076
3411.59 0.64957
3414.45 0.675939
3417.32 0.662733
3420.18 0.644313
3423.05 0.644328
3425.91 0.647177
3428.77 0.662735
3431.64 0.642511
3434.5 0.660891
3437.37 0.668115
3440.23 0.648987
3443.1 0.676837
3445.96 0.644635
3448.83 0.65829
3451.69 0.66258
3454.56 0.648831
3457.42 0.622785
3460.28 0.630447
3463.15 0.647404
3466.01 0.656671
3468.88 0.653731
3471.74 0.678064
3474.61 0.658172
3477.47 0.659665
3480.34 0.672494
3483.2 0.689183
3486.06 0.672288
3488.93 0.634074
3491.79 0.622521
3494.66 0.67459
3497.52 0.641819
3500.39 0.633177
3503.25 0.622274
3506.12 0.638096
3508.98 0.660186
3511.84 0.703657
3514.71 0.687738
3517.57 0.679017
3520.44 0.646232
3523.3 0.642013
3526.17 0.642646
3529.03 0.657093
3531.9 0.668012
3534.76 0.661823
3537.62 0.645203
3540.49 0.674333
3543.35 0.677793
3546.22 0.647025
3549.08 0.632085
3551.95 0.663256
3554.81 0.674401
3557.68 0.703927
3560.54 0.723113
3563.41 0.668414
3566.27 0.667662
3569.13 0.682272
3572 0.693649
3574.86 0.646234
3577.73 0.670214
3580.59 0.692923
3583.46 0.670036
3586.32 0.630899
3589.19 0.661313
3592.05 0.670973
3594.91 0.664366
3597.78 0.663158
3600.64 0.694686
3603.51 0.694949
3606.37 0.656863
3609.24 0.683157
3612.1 0.686928
3614.97 0.693489
3617.83 0.681358
3620.69 0.675575
3623.56 0.66088
3626.42 0.653101
3629.29 0.631001
3632.15 0.662246
3635.02 0.635866
3637.88 0.641959
3640.75 0.699981
3643.61 0.687819
3646.47 0.665726
3649.34 0.652535
3652.2 0.680662
3655.07 0.661525
3657.93 0.6798
3660.8 0.676137
3663.66 0.695727
3666.53 0.68532
3669.39 0.679173
3672.26 0.679186
3675.12 0.651345
3677.98 0.67758
3680.85 0.701358
3683.71 0.684315
3686.58 0.686253
3689.44 0.661924
3692.31 0.697947
3695.17 0.698153
3698.04 0.674853
3700.9 0.672114
3703.76 0.680956
3706.63 0.649372
3709.49 0.676108
3712.36 0.646236
3715.22 0.701186
3718.09 0.71061
3720.95 0.673329
3723.82 0.687072
3726.68 0.710319
3729.54 0.7146
3732.41 0.701415
3735.27 0.669086
3738.14 0.724345
3741 0.719165
3743.87 0.679501
3746.73 0.677787
3749.6 0.655236
3752.46 0.644872
3755.32 0.666642
3758.19 0.690244
3761.05 0.676632
3763.92 0.698203
3766.78 0.709683
3769.65 0.674881
3772.51 0.674597
3775.38 0.691051
3778.24 0.709489
3781.11 0.671829
3783.97 0.670994
3786.83 0.663141
3789.7 0.69081
3792.56 0.718562
3795.43 0.726564
3798.29 0.70909
3801.16 0.670551
3804.02 0.6985
3806.89 0.691331
3809.75 0.688943
3812.61 0.69566
3815.48 0.685791
3818.34 0.683781
3821.21 0.699311
3824.07 0.705867
3826.94 0.712407
3829.8 0.712475
3832.67 0.695517
3835.53 0.708812
3838.39 0.7228
3841.26 0.691105
3844.12 0.714973
3846.99 0.696968
3849.85 0.675039
3852.72 0.716704
3855.58 0.741806
3858.45 0.713593
3861.31 0.702399
3864.17 0.720717
3867.04 0.705941
3869.9 0.692554
3872.77 0.711294
3875.63 0.717431
3878.5 0.676
3881.36 0.68153
3884.23 0.712407
3887.09 0.700781
3889.96 0.694427
3892.82 0.718121
3895.68 0.722405
3898.55 0.725155
3901.41 0.764537
3904.28 0.694093
3907.14 0.688137
3910.01 0.705842
3912.87 0.71337
3915.74 0.700933
3918.6 0.682484
3921.46 0.70225
3924.33 0.723371
3927.19 0.66301
3930.06 0.656512
3932.92 0.698336
3935.79 0.730585
3938.65 0.730007
3941.52 0.709994
3944.38 0.691903
3947.24 0.703152
3950.11 0.768602
3952.97 0.75034
3955.84 0.711591
3958.7 0.716341
3961.57 0.683868
3964.43 0.688523
3967.3 0.703539
3970.16 0.730105
3973.02 0.715025
3975.89 0.717286
3978.75 0.697556
3981.62 0.702371
3984.48 0.683324
3987.35 0.708862
3990.21 0.754531
3993.08 0.711122
3995.94 0.736793
3998.81 0.739648
4001.67 0.705653
4004.53 0.690453
4007.4 0.702297
4010.26 0.769462
4013.13 0.700965
4015.99 0.680688
4018.86 0.688646
4021.72 0.722241
4024.59 0.729069
4027.45 0.710949
4030.31 0.747294
4033.18 0.749297
4036.04 0.696058
4038.91 0.7011
4041.77 0.712065
4044.64 0.727298
4047.5 0.721105
4050.37 0.701603
4053.23 0.73021
4056.09 0.717835
4058.96 0.700383
4061.82 0.698389
4064.69 0.717209
4067.55 0.729726
4070.42 0.739727
4073.28 0.717145
4076.15 0.739288
4079.01 0.770375
4081.88 0.717702
4084.74 0.732212
4087.6 0.72521
4090.47 0.729973
4093.33 0.754298
4096.2 0.752724
4099.06 0.750521
4101.93 0.686878
4104.79 0.715635
4107.66 0.740151
4110.52 0.74222
4113.38 0.686044
4116.25 0.745644
4119.11 0.709361
4121.98 0.790715
4124.84 0.753424
4127.71 0.772489
4130.57 0.749531
4133.44 0.761059
4136.3 0.759549
4139.16 0.752009
4142.03 0.716709
4144.89 0.723737
4147.76 0.809632
4150.62 0.759495
4153.49 0.73577
4156.35 0.760698
4159.22 0.756826
4162.08 0.720994
4164.94 0.728411
4167.81 0.715095
4170.67 0.712984
4173.54 0.802802
4176.4 0.77313
4179.27 0.728523
4182.13 0.764102
4185 0.738467
4187.86 0.7305
4190.73 0.74638
4193.59 0.785082
4196.45 0.753766
4199.32 0.709566
4202.18 0.746472
4205.05 0.779941
4207.91 0.797035
4210.78 0.758223
4213.64 0.740729
4216.5 0.758286
4219.37 0.745268
4222.23 0.713069
4225.1 0.725832
4227.96 0.773565
4230.83 0.806222
4233.69 0.735125
4236.56 0.740356
4239.42 0.781998
4242.29 0.765486
4245.15 0.775357
4248.01 0.745667
4250.88 0.750143
4253.74 0.741732
4256.61 0.783557
4259.47 0.753831
4262.34 0.764954
4265.2 0.806223
4268.07 0.750358
4270.93 0.751895
4273.79 0.783898
4276.66 0.779303
4279.52 0.763177
4282.39 0.77855
4285.25 0.733908
4288.12 0.682098
4290.98 0.771738
4293.85 0.723893
4296.71 0.762705
4299.57 0.814696
4302.44 0.769066
4305.3 0.750792
4308.17 0.756873
4311.03 0.739923
4313.9 0.791039
4316.76 0.778298
4319.63 0.803654
4322.49 0.761146
4325.36 0.758923
4328.22 0.797184
4331.08 0.810452
4333.95 0.772152
4336.81 0.782528
4339.68 0.783105
4342.54 0.807891
4345.41 0.7387
4348.27 0.737306
4351.14 0.766871
4354 0.767542
4356.86 0.751122
4359.73 0.732347
4362.59 0.733309
4365.46 0.750605
4368.32 0.800418
4371.19 0.798623
4374.05 0.808172
4376.92 0.753901
4379.78 0.738583
4382.64 0.76651
4385.51 0.737192
4388.37 0.750252
4391.24 0.749394
4394.1 0.763615
4396.97 0.794559
4399.83 0.842268
4402.7 0.755763
4405.56 0.781772
4408.43 0.780091
4411.29 0.735726
4414.15 0.759282
4417.02 0.8138
4419.88 0.802062
4422.75 0.773219
4425.61 0.731497
4428.48 0.787007
4431.34 0.751689
4434.21 0.772978
4437.07 0.75555
4439.93 0.789022
4442.8 0.766405
4445.66 0.743251
4448.53 0.812825
4451.39 0.772151
4454.26 0.754627
4457.12 0.764011
4459.99 0.790561
4462.85 0.73879
4465.71 0.759958
4468.58 0.786863
4471.44 0.810024
4474.31 0.769979
4477.17 0.812362
4480.04 0.816405
4482.9 0.828772
4485.77 0.761391
4488.63 0.76924
4491.49 0.765011
4494.36 0.720596
4497.22 0.752841
4500.09 0.846785
4502.95 0.769634
4505.82 0.758279
4508.68 0.791878
4511.55 0.823467
4514.41 0.767419
4517.27 0.800406
4520.14 0.77112
4523 0.815983
4525.87 0.780821
4528.73 0.745794
4531.6 0.750862
4534.46 0.79903
4537.33 0.791525
4540.19 0.793511
4543.06 0.762239
4545.92 0.792183
4548.78 0.729996
4551.65 0.79918
4554.51 0.829325
4557.38 0.787494
4560.24 0.761558
4563.11 0.809877
4565.97 0.762035
4568.84 0.714331
4571.7 0.80658
4574.56 0.853213
4577.43 0.79127
4580.29 0.797698
4583.16 0.767772
4586.02 0.734386
4588.89 0.777416
4591.75 0.773847
4594.62 0.857424
4597.48 0.811368
4600.34 0.780517
4603.21 0.756344
4606.07 0.794476
4608.94 0.753434
4611.8 0.803543
4614.67 0.780301
4617.53 0.752361
4620.4 0.67675
4623.26 0.793339
4626.12 0.821676
4628.99 0.875439
4631.85 0.772093
4634.72 0.803031
4637.58 0.797109
4640.45 0.762575
4643.31 0.765449
4646.18 0.788642
4649.04 0.735546
4651.91 0.830177
4654.77 0.740242
4657.63 0.773788
4660.5 0.735608
4663.36 0.790704
4666.23 0.76477
4669.09 0.842595
4671.96 0.830064
4674.82 0.861815
4677.69 0.734727
4680.55 0.800474
4683.41 0.767593
4686.28 0.739865
4689.14 0.712264
4692.01 0.833072
4694.87 0.71482
4697.74 0.753479
4700.6 0.725709
4703.47 0.756547
4706.33 0.700842
4709.19 0.815582
4712.06 0.873537
4714.92 0.817582
4717.79 0.823251
4720.65 0.787893
4723.52 0.745324
4726.38 0.738334
4729.25 0.793216
4732.11 0.80527
4734.97 0.628471
4737.84 0.687711
4740.7 0.710222
4743.57 0.821252
4746.43 0.83652
4749.3 0.78563
4752.16 0.820189
4755.03 0.871388
4757.89 0.744674
4760.76 0.663107
4763.62 0.778084
4766.48 0.821518
4769.35 0.844432
4772.21 0.813694
4775.08 0.695025
4777.94 0.780381
4780.81 0.873222
4783.67 0.713028
4786.54 0.636777
4789.4 0.708709
4792.26 0.712345
4795.13 0.601055
4797.99 0.733183
4800.86 0.728014
4803.72 0.984796
4806.59 0.930013
4809.45 0.787597
4812.32 0.659383
4815.18 0.678928
4818.04 0.676322
4820.91 0.583999
4823.77 0.452502
4826.64 0.88545
4829.5 0.623458
4832.37 0.682176
4835.23 0.757945
4838.1 0.674755
4840.96 0.67366
4843.83 1.01871
4846.69 0.756513
4849.55 0.549159
4852.42 0.618279
4855.28 1.07855
4858.15 0.523671
4861.01 0.354402
4863.88 0.430429
4866.74 0.848996
4869.6 0.160432
4872.47 0.389524
4875.33 0.957487
4878.2 0.568806
4881.06 0.480344
4883.93 0.409677
4886.79 0.506464
4889.66 0.497347
4892.52 0.34837
4895.39 0.860533
4898.25 0.594528
4901.11 0.618539
4903.98 0.859218
4906.84 1.22208
4909.71 0.383484
4912.57 0.608888
4915.44 0.116704
4918.3 0.427241
4921.17 0.154702
4924.03 -0.291663
4926.89 0.535826
4929.76 1.10249
4932.62 0.748451
4935.49 0.860596
4938.35 0.963023
4941.22 0.476212
4944.08 0.944407
4946.95 1.0484
4949.81 0.75716
4952.67 0.368819
4955.54 0.24792
4958.4 0.517671
4961.27 0.528087
4964.13 0.536488
4967 -0.214872
4969.86 -0.836456
4972.73 1.65219
4975.59 1.72915
4978.46 0.942491
4981.32 -0.359212
4984.18 -0.315237
4987.05 0.477635
4989.91 -0.417342
4992.78 -0.418147
4995.64 1.89832
4998.51 -1.28732
5001.37 0.11153
5004.24 1.52756
5007.1 1.64392
5009.96 -0.70986
5012.83 2.37
5015.69 2.13131
5018.56 2.98289
5021.42 -0.681702
5024.29 -0.868013
5027.15 -0.778068
5030.02 2.63834
5032.88 0.512975
5035.75 0.471732
5038.61 0.303075
5041.47 1.98014
5044.34 -0.502796
5047.2 0.977027
5050.07 3.29491
5052.93 1.87
5055.8 -0.133088
5058.66 1.61576
5061.52 0.0840491
5064.39 -0.215866
5067.25 -0.0667425
5070.12 2.43084
5072.98 0.474588
5075.85 2.24714
5078.71 1.38269
5081.58 -0.763776
5084.44 -0.87673
5087.31 0.515114
5090.17 -0.454588
5093.03 -2.59921
5095.9 -0.675666
5098.76 8.68543
5101.63 4.44772
5104.49 1.86022
5107.36 1.87052
5110.22 1.56822
5113.09 2.55768
5115.95 5.17318
5118.81 15.4515
5121.68 3.84452
5124.54 0.894209
5127.41 2.01898
5130.27 2.50391
5133.14 0.448587
5136 -1.73597
5138.87 -3.68954
5141.73 1.29369
5144.59 -0.636902
5147.46 -0.17462
5150.32 4.39801
5153.19 2.48416
5156.05 -0.781636
5158.92 -0.70743
5161.78 0.135352
5164.65 6.05378
5167.51 6.17818
5170.38 0.738571
5173.24 5.41737
5176.1 0.398948
5178.97 1.9095
5181.83 4.20918
5184.7 1.53829
5187.56 6.65034
5190.43 1.18551
5193.29 -0.765858
5196.16 8.2664
5199.02 1.41538
5201.88 6.51568
5204.75 6.25776
5207.61 -0.0159356
5210.48 1.2722
5213.34 0.587777
5216.21 -2.7103
5219.07 1.92142
5221.94 2.1041
5224.8 3.05711
5227.66 -1.035
5230.53 3.09707
5233.39 1.79645
5236.26 2.12318
5239.12 -0.00898865
5241.99 8.97031
5244.85 9.95577
5247.72 1.75541
5250.58 2.07992
5253.44 -0.706779
5256.31 -0.421584
5259.17 0.586549
5262.04 -1.58641
5264.9 1.83933
5267.77 2.52383
5270.63 1.12409
5273.5 1.31035
5276.36 -0.0680999
5279.23 2.78204
5282.09 3.9632
5284.95 3.46989
5287.82 1.93216
5290.68 -0.376094
5293.55 0.652182
5296.41 3.33118
5299.28 1.6595
5302.14 4.76534
5305.01 0.943311
5307.87 1.25368
5310.73 -0.938853
5313.6 2.48256
5316.46 1.38104
5319.33 4.28451
5322.19 0.674805
5325.06 1.38279
5327.92 -0.16205
5330.79 2.70736
5333.65 0.513846
5336.51 5.17156
5339.38 0.974349
5342.24 6.0448
5345.11 0.916852
5347.97 2.62194
5350.84 -0.538228
5353.7 -0.475331
5356.57 1.86097
5359.43 4.06058
5362.29 -0.323852
5365.16 1.68274
5368.02 -1.40553
5370.89 2.09154
5373.75 0.952093
5376.62 2.2449
5379.48 -0.730757
5382.35 0.316998
5385.21 0.0431457
5388.08 0.358451
5390.94 0.0437599
5393.8 9.19728
5396.67 2.71543
5399.53 2.1705
5402.4 0.637454
5405.26 3.24921
5408.13 -0.359492
5410.99 0.154056
5413.86 2.03389
5416.72 3.11111
5419.58 1.80486
5422.45 1.55992
5425.31 0.821823
5428.18 1.99399
5431.04 2.80609
5433.91 -0.415298
5436.77 0.925665
5439.64 0.498393
5442.5 0.480554
5445.36 0.491046
5448.23 -1.48328
5451.09 -0.730404
5453.96 0.194032
5456.82 3.21483
5459.69 0.462843
5462.55 1.7554
5465.42 0.41838
5468.28 3.51635
5471.15 6.78489
5474.01 2.60503
5476.87 3.49533
5479.74 1.78894
5482.6 6.65574
5485.47 -0.203631
5488.33 0.546149
5491.2 0.320943
5494.06 1.94258
5496.92 0.572066
5499.79 3.08664
5502.65 0.480767
5505.52 4.89049
5508.38 0.149081
5511.25 8.13278
5514.11 0.719844
5516.98 0.519591
5519.84 1.24573
5522.71 4.42979
5525.57 3.60358
5528.43 7.38076
5531.3 -0.619112
5534.16 6.40695
5537.03 3.17931
5539.89 4.431
5542.76 2.10746
5545.62 1.06238
5548.49 0.269288
5551.35 1.50039
5554.21 0.694517
5557.08 2.54887
5559.94 -0.890959
5562.81 8.15359
5565.67 0.779521
5568.54 -0.578081
5571.4 -1.30292
5574.27 2.43833
5577.13 0.151
5579.99 2.36387
5582.86 -0.381807
5585.72 1.83588
5588.59 0.457504
5591.45 4.44826
5594.32 -0.514105
5597.18 1.7929
5600.05 -0.950124
5602.91 6.8565
5605.78 6.80406
5608.64 2.81924
5611.5 5.06375
5614.37 -0.171817
5617.23 -0.212172
5620.1 1.38099
5622.96 0.272318
5625.83 2.54258
5628.69 2.17412
5631.56 6.09012
5634.42 5.18504
5637.28 -0.259002
5640.15 0.870042
5643.01 1.80989
5645.88 2.97495
5648.74 -1.4892
5651.61 -0.959527
5654.47 -1.66793
5657.34 -0.515526
5660.2 0.864244
5663.06 -0.908103
5665.93 6.61649
5668.79 2.28809
5671.66 2.17278
5674.52 4.93953
5677.39 1.81733
5680.25 10.2596
5683.12 0.345987
5685.98 0.221241
5688.84 -2.31852
5691.71 -0.0508994
5694.57 -1.63809
5697.44 0.422894
5700.3 1.25616
5703.17 2.57069
5706.03 5.31994
5708.9 12.1433
5711.76 4.28389
5714.62 1.4001
5717.49 0.847704
5720.35 1.53845
5723.22 2.25164
5726.08 4.67806
5728.95 1.38606
5731.81 15.2629
5734.68 -1.82975
5737.54 0.554524
5740.41 13.416
5743.27 3.08185
5746.13 1.03003
5749 1.94285
5751.86 -0.300612
5754.73 6.61428
5757.59 1.13721
5760.46 5.7804
5763.32 2.36923
5766.19 2.68687
5769.05 0.767084
5771.91 2.07125
5774.78 0.486578
5777.64 4.41246
5780.51 1.19612
5783.37 1.05546
5786.24 3.45641
5789.1 2.4168
5791.97 0.952686
5794.83 2.33671
5797.69 1.65044
5800.56 5.74219
5803.42 3.68611
5806.29 10.3025
5809.15 5.99518
5812.02 -0.658233
5814.88 1.36084
5817.75 1.57432
5820.61 1.37217
5823.48 4.20632
5826.34 3.64311
5829.2 6.56698
5832.07 3.3974
5834.93 1.831
5837.8 3.26592
5840.66 -1.46749
5843.53 -2.10253
5846.39 5.89424
5849.26 5.55563
5852.12 3.4001
5854.98 2.19266
5857.85 3.30233
5860.71 1.33997
5863.58 -1.6351
spectrumdark 2048
0 2745.32
2.8709 2321.8
5.74181 1032.27
8.61271 1344.56
11.4836 1626.5
14.3545 1439.26
17.2254 1360.07
20.0963 1663.36
22.9672 1866.98
25.8381 2313.1
28.709 1974.71
31.5799 1748.49
34.4509 1985.77
37.3218 2517.6
40.1927 2017.94
43.0636 3281.96
45.9345 3681.17
48.8054 2389.63
51.6763 3037.62
54.5472 4277.08
57.4181 4832.63
60.289 3756.45
63.1599 3833.23
66.0308 3662.53
68.9017 3774.62
71.7726 5056.01
74.6435 4663.3
77.5144 4192.31
80.3853 4400.21
83.2562 3947.66
86.1271 5057.03
88.998 5118.48
91.8689 2923.17
94.7398 4147.1
97.6107 5245.2
100.482 4804.9
103.353 4050.47
106.223 2994.6
109.094 4723.42
111.965 4715.57
114.836 3726.25
117.707 3428.67
120.578 4254.71
123.449 3456.57
126.32 5270.9
129.191 5849.71
132.062 3596.54
134.932 3620.46
137.803 4494.68
140.674 3935.52
143.545 4159.95
146.416 4413.7
149.287 3956.88
152.158 4534.12
155.029 4264.1
157.9 4113.73
160.771 3941.92
163.642 2804.15
166.512 3446.48
169.383 4935.33
172.254 6157.66
175.125 4705.28
177.996 3352.73
180.867 4297.98
183.738 4328.59
186.609 3957.66
189.48 4310.42
192.351 4277.29
195.221 3808.58
198.092 5117.88
200.963 5490.95
203.834 4193.22
206.705 4144.49
209.576 5013.56
212.447 4121.45
215.318 4167.82
218.189 4139.23
221.06 3621.91
223.931 4361.29
226.801 5302.74
229.672 4489.48
232.543 4535.07
235.414 3784.74
238.285 3845.61
241.156 4217.24
244.027 3017.51
246.898 3362.72
249.769 3459.85
252.64 4411.23
255.51 5299.04
258.381 5313.93
261.252 2960.72
264.123 3055.25
266.994 4023.85
269.865 4472.82
272.736 3487.01
275.607 3795.8
278.478 3697.79
281.349 3710.46
284.22 3068.98
287.09 4025.69
289.961 3870.19
292.832 3521
295.703 3798.35
298.574 4416.77
301.445 3815.26
304.316 3361.65
307.187 3222.47
310.058 3875.36
312.929 4041.43
315.799 3120.75
318.67 2895.49
321.541 3767.45
324.412 3895.56
327.283 3642.58
330.154 3177.37
333.025 3163.36
335.896 3237.55
338.767 3421
341.638 3399.29
344.509 3183.73
347.379 2871.15
350.25 2474.34
353.121 3542.19
355.992 3360.42
358.863 3315.52
361.734 2970.02
364.605 2741.29
367.476 3564.31
370.347 3766.02
373.218 2739.3
376.088 3342.39
378.959 3874.12
381.83 2900.83
384.701 3868.44
387.572 2829.03
390.443 2464.13
393.314 2814.36
396.185 2916.91
399.056 3260.63
401.927 3139.92
404.798 3357.72
407.668 3236.96
410.539 2686.53
413.41 1735.81
416.281 2231.77
419.152 3103.47
422.023 3290.73
424.894 3834.53
427.765 3506.32
430.636 2465.39
433.507 1651.46
436.378 3053.14
439.248 3364.29
442.119 2927.25
444.99 2528.35
447.861 2566.15
450.732 3226.09
453.603 3064.63
456.474 2251.04
459.345 2008.47
462.216 2613.89
465.087 3234.72
467.957 2764.65
470.828 2503.51
473.699 2509.73
476.57 2701.2
479.441 3627.6
482.312 2655.87
485.183 1967.86
488.054 2826.06
490.925 2962.47
493.796 2683.92
496.666 2785.1
499.537 2075.61
502.408 2118.36
505.279 2520
508.15 1771.53
511.021 1709.92
513.892 2650.5
516.763 2020.03
519.634 2507.35
522.505 2943.7
525.376 1993.59
528.246 3067.39
531.117 1990.45
533.988 1566.59
536.859 2526.62
539.73 2293.53
542.601 2668.84
545.472 2516.45
548.343 2567.88
551.214 2037.57
554.085 2396.87
556.955 2205.34
559.826 2263.64
562.697 2730.58
565.568 2478.6
568.439 2064.35
571.31 1479.05
574.181 2688.72
577.052 2850.36
579.923 2815.88
582.794 3263.76
585.664 2904.12
588.535 2612.83
591.406 4000.79
594.277 4412.47
597.148 4641.05
600.019 5160.69
602.89 5234.93
605.761 4983.13
608.632 6016.72
611.503 6645.34
614.374 8181.85
617.244 9100.6
620.115 10332.1
622.986 12707.9
625.857 12981.3
628.728 15100.3
631.599 18159.5
634.47 19294.2
637.341 20887
640.212 23324.2
643.083 25078.5
645.953 26495
648.824 28734.2
651.695 30877.9
654.566 33330.1
657.437 35800.5
660.308 37674.1
663.179 40913.8
666.05 41594.7
668.921 40454.7
671.792 48362.8
674.663 50473.1
677.533 52147.8
680.404 54869.9
683.275 56939.1
686.146 59672
689.017 62213.6
691.888 63743.9
694.759 67452.8
697.63 69975.8
700.501 71888.8
703.372 75038.6
706.242 77228.3
709.113 80470.3
711.984 83689.9
714.855 85833.5
717.726 90037.6
720.597 92707.4
723.468 94039.9
726.339 97661.6
729.21 101626
732.081 104531
734.952 109300
737.822 112789
740.693 116180
743.564 119341
746.435 122852
749.306 127214
752.177 130196
755.048 133934
757.919 138439
760.79 142754
763.661 146574
766.531 150923
769.402 156003
772.273 159483
775.144 164134
778.015 168325
780.886 171420
783.757 175384
786.628 178897
789.499 183117
792.37 186451
795.24 189053
798.111 193206
800.982 197119
803.853 201418
806.724 206759
809.595 212349
812.466 217380
815.337 224092
818.208 228239
821.079 232539
823.95 238182
826.82 241954
829.691 247183
832.562 252250
835.433 257099
838.304 261194
841.175 263823
844.046 268522
846.917 273121
849.788 276728
852.659 280899
855.53 286091
858.4 289601
861.271 293456
864.142 297887
867.013 302481
869.884 306058
872.755 310259
875.626 314921
878.497 318829
881.368 322988
884.239 327512
887.109 332896
889.98 337518
892.851 342268
895.722 348263
898.593 352949
901.464 357311
904.335 363439
907.206 367820
910.077 373503
912.948 379503
915.819 385021
918.689 390841
921.56 396122
924.431 402105
927.302 409052
930.173 414463
933.044 421391
935.915 428835
938.786 434763
941.657 442747
944.528 450019
947.398 457741
950.269 466257
953.14 475307
956.011 484564
958.882 494987
961.753 505887
964.624 516419
967.495 527697
970.366 540510
973.237 552965
976.107 565650
978.978 577946
981.849 590930
984.72 602532
987.591 612893
990.462 623208
993.333 632465
996.204 639425
999.075 644708
1001.95 647274
1004.82 647271
1007.69 644376
1010.56 639224
1013.43 632920
1016.3 625062
1019.17 615719
1022.04 607467
1024.91 597909
1027.78 586857
1030.65 576969
1033.53 565252
1036.4 553019
1039.27 541158
1042.14 528346
1045.01 515606
1047.88 503008
1050.75 490339
1053.62 477920
1056.49 465321
1059.36 452668
1062.23 440180
1065.11 427254
1067.98 413621
1070.85 402205
1073.72 389977
1076.59 378879
1079.46 368377
1082.33 357919
1085.2 348853
1088.07 341112
1090.94 334755
1093.81 329178
1096.69 325145
1099.56 321458
1102.43 318385
1105.3 316377
1108.17 314582
1111.04 314130
1113.91 312563
1116.78 311982
1119.65 311706
1122.52 311334
1125.39 311078
1128.27 311592
1131.14 311358
1134.01 311120
1136.88 311158
1139.75 310327
1142.62 310520
1145.49 309521
1148.36 309045
1151.23 308801
1154.1 307390
1156.97 305727
1159.85 304305
1162.72 302385
1165.59 300140
1168.46 298461
1171.33 296082
1174.2 293406
1177.07 291253
1179.94 287949
1182.81 285027
1185.68 282010
1188.55 278801
1191.43 275946
1194.3 273066
1197.17 270047
1200.04 267557
1202.91 265199
1205.78 262673
1208.65 260958
1211.52 259661
1214.39 259311
1217.26 259085
1220.13 258643
1223.01 259805
1225.88 261674
1228.75 263450
1231.62 267290
1234.49 271407
1237.36 276665
1240.23 282219
1243.1 287280
1245.97 293283
1248.84 299497
1251.71 304003
1254.59 308616
1257.46 310513
1260.33 310692
1263.2 310653
1266.07 312026
1268.94 313132
1271.81 314222
1274.68 313984
1277.55 314925
1280.42 315144
1283.29 314197
1286.17 313908
1289.04 312771
1291.91 312262
1294.78 312281
1297.65 311315
1300.52 309992
1303.39 309287
1306.26 308431
1309.13 307876
1312 306903
1314.87 305189
1317.75 303909
1320.62 302411
1323.49 302874
1326.36 302515
1329.23 302562
1332.1 301940
1334.97 300716
1337.84 298189
1340.71 293540
1343.58 294611
1346.45 297216
1349.33 296298
1352.2 295627
1355.07 295242
1357.94 293998
1360.81 292863
1363.68 286742
1366.55 286809
1369.42 291294
1372.29 289335
1375.16 286313
1378.03 285202
1380.91 289217
1383.78 289750
1386.65 287487
1389.52 278362
1392.39 283927
1395.26 280119
1398.13 272139
1401 275459
1403.87 281179
1406.74 279619
1409.61 282192
1412.48 282987
1415.36 281737
1418.23 275454
1421.1 256356
1423.97 268989
1426.84 274645
1429.71 277806
1432.58 272640
1435.45 273120
1438.32 257400
1441.19 265804
1444.06 277157
1446.94 276009
1449.81 268208
1452.68 269541
1455.55 265052
1458.42 238148
1461.29 241557
1464.16 268958
1467.03 259851
1469.9 266643
1472.77 261961
1475.64 241988
1478.52 260056
1481.39 271765
1484.26 272190
1487.13 271706
1490 259555
1492.87 252095
1495.74 263742
1498.61 249591
1501.48 253027
1504.35 259366
1507.22 238773
1510.1 214078
1512.97 249555
1515.84 252772
1518.71 244592
1521.58 237571
1524.45 222636
1527.32 242958
1530.19 247959
1533.06 254914
1535.93 241294
1538.8 243630
1541.68 210567
1544.55 212053
1547.42 235654
1550.29 251361
1553.16 247553
1556.03 238766
1558.9 222142
1561.77 190784
1564.64 235494
1567.51 248736
1570.38 247371
1573.26 237744
1576.13 248298
1579 225432
1581.87 249230
1584.74 253486
1587.61 253179
1590.48 251682
1593.35 249233
1596.22 246652
1599.09 244171
1601.96 241705
1604.84 236883
1607.71 233113
1610.58 227461
1613.45 221984
1616.32 216398
1619.19 195135
1622.06 203967
1624.93 203541
1627.8 202531
1630.67 206476
1633.54 209850
1636.42 202911
1639.29 190999
1642.16 216532
1645.03 219019
1647.9 208553
1650.77 199296
1653.64 205325
1656.51 178038
1659.38 228197
1662.25 236015
1665.12 229716
1668 234526
1670.87 229434
1673.74 222495
1676.61 230290
1679.48 227853
1682.35 236336
1685.22 223176
1688.09 205049
1690.96 238167
1693.83 237188
1696.7 231522
1699.58 204802
1702.45 204464
1705.32 217569
1708.19 230308
1711.06 237580
1713.93 239409
1716.8 228115
1719.67 211971
1722.54 223011
1725.41 240388
1728.28 239336
1731.16 235990
1734.03 226301
1736.9 204712
1739.77 224776
1742.64 225483
1745.51 231100
1748.38 231450
1751.25 226786
1754.12 222175
1756.99 234202
1759.86 231958
1762.74 234787
1765.61 228232
1768.48 235408
1771.35 224537
1774.22 219075
1777.09 219111
1779.96 231118
1782.83 229471
1785.7 228661
1788.57 226464
1791.44 227058
1794.32 217492
1797.19 216655
1800.06 223734
1802.93 220032
1805.8 220101
1808.67 222385
1811.54 219542
1814.41 215287
1817.28 214362
1820.15 207945
1823.02 201946
1825.9 198472
1828.77 191910
1831.64 191685
1834.51 189213
1837.38 192333
1840.25 189996
1843.12 186202
1845.99 179417
1848.86 176020
1851.73 181411
1854.6 180567
1857.48 179025
1860.35 177396
1863.22 175397
1866.09 172745
1868.96 168521
1871.83 164231
1874.7 165972
1877.57 166889
1880.44 165559
1883.31 163931
1886.18 161792
1889.06 159275
1891.93 156549
1894.8 154659
1897.67 154474
1900.54 152857
1903.41 151421
1906.28 149214
1909.15 146907
1912.02 145188
1914.89 143509
1917.76 140982
1920.64 138134
1923.51 136785
1926.38 135428
1929.25 133938
1932.12 131288
1934.99 128671
1937.86 126217
1940.73 123056
1943.6 119787
1946.47 116937
1949.34 115265
1952.21 113672
1955.09 111629
1957.96 109453
1960.83 106723
1963.7 102878
1966.57 100099
1969.44 98553.4
1972.31 96628.2
1975.18 95246.8
1978.05 93838.8
1980.92 91773.4
1983.79 93579
1986.67 96889.8
1989.54 98332.5
1992.41 99147.5
1995.28 100120
1998.15 101100
2001.02 101465
2003.89 100766
2006.76 99177.1
2009.63 96724.6
2012.5 94855.9
2015.37 94601.9
2018.25 94219.1
2021.12 93284.5
2023.99 93096.7
2026.86 92933.5
2029.73 92381.1
2032.6 92257.7
2035.47 92426.9
2038.34 92527.1
2041.21 94201.3
2044.08 95902.6
2046.95 97704.1
2049.83 99959.7
2052.7 102327
2055.57 108204
2058.44 111646
2061.31 114150
2064.18 115484
2067.05 116729
2069.92 118031
2072.79 119982
2075.66 121596
2078.53 123441
2081.41 125761
2084.28 128060
2087.15 129954
2090.02 131881
2092.89 132813
2095.76 132998
2098.63 131737
2101.5 131073
2104.37 131724
2107.24 132428
2110.11 132944
2112.99 133495
2115.86 134547
2118.73 135154
2121.6 135572
2124.47 134718
2127.34 132936
2130.21 130550
2133.08 126755
2135.95 121895
2138.82 115880
2141.69 110993
2144.57 107861
2147.44 104667
2150.31 100986
2153.18 98335.8
2156.05 95697.1
2158.92 91661.5
2161.79 86581.6
2164.66 84133
2167.53 86588.7
2170.4 88989.7
2173.27 91400.6
2176.15 93161.7
2179.02 93649.2
2181.89 93811.3
2184.76 94373.2
2187.63 94428.8
2190.5 95903.5
2193.37 97424.8
2196.24 98842.6
2199.11 99909.9
2201.98 101545
2204.85 102323
2207.73 102966
2210.6 104225
2213.47 104838
2216.34 105797
2219.21 106876
2222.08 107829
2224.95 109161
2227.82 109695
2230.69 111131
2233.56 112600
2236.43 114033
2239.31 115292
2242.18 117107
2245.05 118425
2247.92 119685
2250.79 121626
2253.66 123003
2256.53 124405
2259.4 125495
2262.27 127558
2265.14 129902
2268.01 131586
2270.89 133818
2273.76 136562
2276.63 139464
2279.5 142888
2282.37 146773
2285.24 150785
2288.11 155533
2290.98 161961
2293.85 167883
2296.72 173376
2299.59 178022
2302.47 181981
2305.34 185481
2308.21 188271
2311.08 190915
2313.95 193060
2316.82 194844
2319.69 196354
2322.56 198398
2325.43 201245
2328.3 208370
2331.17 214363
2334.05 212200
2336.92 209372
2339.79 207697
2342.66 206889
2345.53 208570
2348.4 213806
2351.27 221800
2354.14 225099
2357.01 210518
2359.88 196056
2362.75 186358
2365.63 181555
2368.5 181007
2371.37 183560
2374.24 188107
2377.11 195020
2379.98 200972
2382.85 205190
2385.72 206817
2388.59 206043
2391.46 203422
2394.33 200597
2397.21 197662
2400.08 195046
2402.95 191912
2405.82 188895
2408.69 186107
2411.56 183321
2414.43 181322
2417.3 179847
2420.17 178063
2423.04 176160
2425.91 174821
2428.79 173153
2431.66 171667
2434.53 170464
2437.4 169080
2440.27 168142
2443.14 167171
2446.01 166320
2448.88 165792
2451.75 165144
2454.62 165001
2457.49 165190
2460.36 164999
2463.24 164713
2466.11 164700
2468.98 163796
2471.85 163047
2474.72 162730
2477.59 161740
2480.46 160693
2483.33 160100
2486.2 159000
2489.07 158529
2491.95 157761
2494.82 157110
2497.69 156794
2500.56 155890
2503.43 155458
2506.3 155126
2509.17 154420
2512.04 153605
2514.91 153371
2517.78 152860
2520.65 152154
2523.53 151821
2526.4 151441
2529.27 150954
2532.14 150698
2535.01 150253
2537.88 150260
2540.75 149838
2543.62 149691
2546.49 149920
2549.36 149574
2552.23 149453
2555.1 149645
2557.98 149854
2560.85 150334
2563.72 150516
2566.59 150198
2569.46 150652
2572.33 151098
2575.2 151661
2578.07 152625
2580.94 153227
2583.81 154090
2586.68 155065
2589.56 155490
2592.43 156682
2595.3 158099
2598.17 159294
2601.04 160803
2603.91 162262
2606.78 163714
2609.65 165412
2612.52 167685
2615.39 169578
2618.26 171936
2621.14 174470
2624.01 176958
2626.88 179421
2629.75 182301
2632.62 185523
2635.49 188893
2638.36 192115
2641.23 195628
2644.1 199300
2646.97 202812
2649.84 206708
2652.72 211017
2655.59 214745
2658.46 218568
2661.33 221922
2664.2 224879
2667.07 227284
2669.94 228315
2672.81 228532
2675.68 228057
2678.55 227252
2681.42 226576
2684.3 225913
2687.17 225267
2690.04 224518
2692.91 223650
2695.78 222674
2698.65 222178
2701.52 221441
2704.39 220664
2707.26 220222
2710.13 219285
2713 218728
2715.88 217908
2718.75 217214
2721.62 216737
2724.49 215770
2727.36 215043
2730.23 214317
2733.1 213618
2735.97 212878
2738.84 212337
2741.71 211739
2744.58 210815
2747.46 210267
2750.33 209692
2753.2 208934
2756.07 208382
2758.94 207848
2761.81 207234
2764.68 206443
2767.55 205596
2770.42 205113
2773.29 204571
2776.16 203811
2779.04 203399
2781.91 202640
2784.78 201756
2787.65 201188
2790.52 200497
2793.39 199768
2796.26 199209
2799.13 198750
2802 198029
2804.87 197640
2807.74 197016
2810.62 196217
2813.49 195357
2816.36 194925
2819.23 194459
2822.1 193582
2824.97 192779
2827.84 192427
2830.71 191460
2833.58 191026
2836.45 190524
2839.32 189655
2842.2 189042
2845.07 188196
2847.94 187335
2850.81 186206
2853.68 185315
2856.55 184527
2859.42 183708
2862.29 183088
2865.16 182604
2868.03 182372
2870.9 181334
2873.78 180866
2876.65 180683
2879.52 180081
2882.39 179579
2885.26 178928
2888.13 178286
2891 177671
2893.87 176822
2896.74 176238
2899.61 175602
2902.48 174805
2905.36 174011
2908.23 173328
2911.1 172385
2913.97 171724
2916.84 170701
2919.71 169740
2922.58 169336
2925.45 168250
2928.32 167024
2931.19 166183
2934.06 165557
2936.94 165273
2939.81 165244
2942.68 164698
2945.55 164499
2948.42 163920
2951.29 163376
2954.16 163212
2957.03 162529
2959.9 161794
2962.77 161471
2965.64 160661
2968.52 159810
2971.39 159583
2974.26 159490
2977.13 159403
2980 159285
2982.87 159075
2985.74 158643
2988.61 158451
2991.48 157855
2994.35 157580
2997.22 156945
3000.1 156443
3002.97 156127
3005.84 155692
3008.71 154797
3011.58 154565
3014.45 153929
3017.32 152971
3020.19 152893
3023.06 152530
3025.93 152029
3028.8 151397
3031.68 150483
3034.55 150146
3037.42 149214
3040.29 148631
3043.16 148597
3046.03 148018
3048.9 147376
3051.77 147036
3054.64 146271
3057.51 145926
3060.38 145472
3063.26 144930
3066.13 144313
3069 143791
3071.87 142788
3074.74 142373
3077.61 142219
3080.48 141777
3083.35 141055
3086.22 140392
3089.09 139820
3091.96 139605
3094.83 138937
3097.71 138409
3100.58 137976
3103.45 137029
3106.32 136460
3109.19 136035
3112.06 135380
3114.93 134748
3117.8 134396
3120.67 133640
3123.54 133236
3126.41 132720
3129.29 132196
3132.16 131908
3135.03 131276
3137.9 130611
3140.77 130439
3143.64 129587
3146.51 129077
3149.38 128590
3152.25 127949
3155.12 127388
3157.99 126901
3160.87 126656
3163.74 126138
3166.61 125241
3169.48 124898
3172.35 124269
3175.22 123570
3178.09 123106
3180.96 122594
3183.83 121757
3186.7 121365
3189.57 120757
3192.45 120096
3195.32 119710
3198.19 119430
3201.06 118870
3203.93 118261
3206.8 117872
3209.67 117408
3212.54 116806
3215.41 116325
3218.28 116024
3221.15 115562
3224.03 115076
3226.9 114852
3229.77 114552
3232.64 113828
3235.51 113596
3238.38 113315
3241.25 112983
3244.12 112874
3246.99 112653
3249.86 112128
3252.73 111879
3255.61 111684
3258.48 111467
3261.35 111185
3264.22 110853
3267.09 110625
3269.96 110411
3272.83 109753
3275.7 109668
3278.57 109614
3281.44 109180
3284.31 109040
3287.19 108769
3290.06 108425
3292.93 108062
3295.8 107473
3298.67 107127
3301.54 107099
3304.41 106424
3307.28 106045
3310.15 105518
3313.02 104909
3315.89 104775
3318.77 104315
3321.64 103895
3324.51 103627
3327.38 103016
3330.25 102291
3333.12 102047
3335.99 101600
3338.86 100997
3341.73 100264
3344.6 99726.6
3347.47 99403.8
3350.35 98786.4
3353.22 98394.2
3356.09 98072.5
3358.96 97196.3
3361.83 96442.5
3364.7 96259.3
3367.57 95522.4
3370.44 94604.3
3373.31 94177.7
3376.18 93774.6
3379.05 93506.4
3381.93 92829.2
3384.8 92339.1
3387.67 91824.2
3390.54 90976.4
3393.41 90142.9
3396.28 89708.2
3399.15 88921.7
3402.02 88541.3
3404.89 88076.2
3407.76 87459.2
3410.63 87022.4
3413.51 86581.6
3416.38 85940.4
3419.25 85484.2
3422.12 84791.6
3424.99 83964.4
3427.86 83264.3
3430.73 82882.3
3433.6 82377.2
3436.47 82058.4
3439.34 81455.7
3442.21 81016.6
3445.09 80538.1
3447.96 79777.9
3450.83 79304.5
3453.7 78209.2
3456.57 78049.6
3459.44 78032.6
3462.31 77752
3465.18 76978.9
3468.05 76181.2
3470.92 75816
3473.79 75451.7
3476.67 75031.8
3479.54 74568.2
3482.41 74263.2
3485.28 73813.5
3488.15 72838.1
3491.02 72900
3493.89 72555.3
3496.76 72104.9
3499.63 71932.2
3502.5 71508.9
3505.37 71053
3508.25 70272.6
3511.12 69789.8
3513.99 69920.4
3516.86 69351.3
3519.73 69535.2
3522.6 69565.6
3525.47 69211.8
3528.34 68319.4
3531.21 67828
3534.08 67766.3
3536.95 67763.2
3539.83 68345.1
3542.7 67925.7
3545.57 67925.4
3548.44 67798.8
3551.31 66844.6
3554.18 66654
3557.05 67326.9
3559.92 67010.1
3562.79 67769.1
3565.66 67407.9
3568.53 67122.4
3571.41 66135.9
3574.28 63925.2
3577.15 66860.3
3580.02 68247.5
3582.89 67967
3585.76 68023.3
3588.63 68474.7
3591.5 67467
3594.37 64478.9
3597.24 67415.2
3600.11 68218.1
3602.98 68419.5
3605.86 69158.9
3608.73 69672.8
3611.6 70522.2
3614.47 68076.1
3617.34 67841
3620.21 68678
3623.08 70412
3625.95 68023
3628.82 71146.6
3631.69 72968.3
3634.56 67286.1
3637.44 67605.9
3640.31 73418.9
3643.18 74583.1
3646.05 74966.1
3648.92 74827.3
3651.79 74009.1
3654.66 67598.1
3657.53 66149.7
3660.4 73621.5
3663.27 71685.8
3666.15 74964.8
3669.02 75744.3
3671.89 75444
3674.76 72226.6
3677.63 66673.8
3680.5 68821.7
3683.37 64886.6
3686.24 72276.9
3689.11 74045
3691.98 74308.6
3694.85 67972.3
3697.72 68324.9
3700.6 73248.6
3703.47 74588.9
3706.34 74140.4
3709.21 71828.4
3712.08 73747
3714.95 72362.4
3717.82 68000.4
3720.69 69318.6
3723.56 73422.5
3726.43 72825.1
3729.3 71076.6
3732.18 70348.7
3735.05 71001.3
3737.92 69536.2
3740.79 65638.8
3743.66 64054.2
3746.53 69302.8
3749.4 67283.5
3752.27 59572
3755.14 65018.1
3758.01 60722.2
3760.88 66883.1
3763.76 71361.9
3766.63 70486.1
3769.5 72534
3772.37 71660.5
3775.24 71343.7
3778.11 70639.6
3780.98 73853.3
3783.85 73560.4
3786.72 71388.4
3789.59 72909
3792.46 72526.5
3795.34 73108.1
3798.21 73208.1
3801.08 72364.8
3803.95 70011.8
3806.82 68029.7
3809.69 64617.6
3812.56 68226.9
3815.43 67178.3
3818.3 71354.8
3821.17 68999.2
3824.04 64312.8
3826.92 65655.3
3829.79 64844.3
3832.66 69139.1
3835.53 69085.4
3838.4 67532.4
3841.27 66513.4
3844.14 62544.3
3847.01 63135.6
3849.88 65948
3852.75 67735.8
3855.62 68454.9
3858.5 62446.6
3861.37 53623.3
3864.24 64371
3867.11 66714.2
3869.98 64666.3
3872.85 63595.1
3875.72 63238.8
3878.59 61936.4
3881.46 64385.3
3884.33 66326.2
3887.2 63595.3
3890.08 63946.5
3892.95 61433.6
3895.82 64554.2
3898.69 62124.2
3901.56 64461.1
3904.43 64290.1
3907.3 60670
3910.17 59777.1
3913.04 61290.3
3915.91 64333.3
3918.78 64656.1
3921.66 64227.9
3924.53 62044.9
3927.4 62396.7
3930.27 62685.5
3933.14 62328.7
3936.01 62761.2
3938.88 61322.6
3941.75 61882.1
3944.62 62408.8
3947.49 62090.2
3950.36 60874.3
3953.24 61103.8
3956.11 60376.9
3958.98 60854.2
3961.85 60984.6
3964.72 60590.5
3967.59 60232.3
3970.46 59798.2
3973.33 59833.6
3976.2 59606.7
3979.07 59427
3981.94 59128.1
3984.82 58878.4
3987.69 58703.7
3990.56 58495.8
3993.43 58089
3996.3 57810.1
3999.17 57792.3
4002.04 57415.1
4004.91 57310.2
4007.78 57288.8
4010.65 56964.4
4013.52 56631.3
4016.4 56116.9
4019.27 56105.9
4022.14 55906.9
4025.01 55529
4027.88 55522.5
4030.75 55421.9
4033.62 54856.8
4036.49 54788.6
4039.36 54636.7
4042.23 54469.9
4045.1 54340.7
4047.98 54116.4
4050.85 53836.8
4053.72 53641.3
4056.59 53387.9
4059.46 53110.8
4062.33 53018.8
4065.2 52987.8
4068.07 52667.7
4070.94 52516.4
4073.81 52184.4
4076.68 52079.1
4079.56 51992.5
4082.43 51760.5
4085.3 51754
4088.17 51596.2
4091.04 51217.9
4093.91 51128.3
4096.78 50992.3
4099.65 51011.2
4102.52 50727.6
4105.39 50663.3
4108.26 50558
4111.14 50224
4114.01 49937.2
4116.88 50054
4119.75 49889.6
4122.62 49594.6
4125.49 49776.1
4128.36 49541.6
4131.23 49384.5
4134.1 49231.7
4136.97 49148.9
4139.84 48859.6
4142.72 48933.5
4145.59 48829.9
4148.46 48572.1
4151.33 48455.5
4154.2 48288.5
4157.07 48439.6
4159.94 48336.5
4162.81 48042.6
4165.68 48034.9
4168.55 47987.3
4171.42 47789.9
4174.3 47767.2
4177.17 47526.9
4180.04 47474.3
4182.91 47621
4185.78 47444.6
4188.65 47265.6
4191.52 47317.8
4194.39 47142.7
4197.26 47082.3
4200.13 47141.7
4203 47076.9
4205.87 47178.2
4208.75 46911.3
4211.62 46725.4
4214.49 46712
4217.36 46629.9
4220.23 46572.8
4223.1 46642
4225.97 46627.9
4228.84 46499.3
4231.71 46462.8
4234.58 46425.8
4237.45 46323.9
4240.33 46459.4
4243.2 46342.4
4246.07 46352.4
4248.94 46183
4251.81 46195
4254.68 46259.3
4257.55 45983.4
4260.42 46084.7
4263.29 46132.6
4266.16 46154
4269.03 46093.4
4271.91 46011
4274.78 45949.4
4277.65 45868.9
4280.52 46068.9
4283.39 45969.6
4286.26 45892.5
4289.13 45920.6
4292 45748
4294.87 45805.3
4297.74 45691.3
4300.61 45777.1
4303.49 45646.6
4306.36 45694.9
4309.23 45769.9
4312.1 45706.8
4314.97 45739.2
4317.84 45714.8
4320.71 45673.2
4323.58 45574.9
4326.45 45669.8
4329.32 45699.1
4332.19 45663.1
4335.07 45591.6
4337.94 45484.5
4340.81 45415
4343.68 45432
4346.55 45316.1
4349.42 45546.6
4352.29 45420.7
4355.16 45319.3
4358.03 45474.7
4360.9 45407.4
4363.77 45220.8
4366.65 45093.1
4369.52 44877
4372.39 45005.5
4375.26 44922.8
4378.13 45001.3
4381 45178.8
4383.87 45050.1
4386.74 44917.1
4389.61 44894.2
4392.48 44854.4
4395.35 44648.6
4398.23 44851.2
4401.1 44765.1
4403.97 44697.1
4406.84 44617.1
4409.71 44561.6
4412.58 44327.6
4415.45 44176.8
4418.32 44301.6
4421.19 44276.2
4424.06 44242.1
4426.93 44091.4
4429.81 43978.6
4432.68 43896.8
4435.55 43796.3
4438.42 43947.4
4441.29 43704.1
4444.16 43460.9
4447.03 43473.3
4449.9 43309
4452.77 43022.4
4455.64 43007.5
4458.51 42979.1
4461.39 42804.3
4464.26 42783.1
4467.13 42592.2
4470 42520.4
4472.87 42390.4
4475.74 42011.7
4478.61 42069.9
4481.48 41796.1
4484.35 41823.7
4487.22 41692.5
4490.09 41486.6
4492.97 41229.8
4495.84 41187.7
4498.71 40914.5
4501.58 40669.6
4504.45 40484.1
4507.32 40261.6
4510.19 40243.4
4513.06 39888
4515.93 39636.2
4518.8 39647.2
4521.67 39302.6
4524.55 39152.1
4527.42 38982.6
4530.29 38678.3
4533.16 38502.4
4536.03 38391.6
4538.9 38058.1
4541.77 37796.6
4544.64 37542
4547.51 37097.5
4550.38 37026.4
4553.25 36675.7
4556.13 36614.4
4559 36283.8
4561.87 36020.7
4564.74 35711.4
4567.61 35422.7
4570.48 35071.6
4573.35 34985.2
4576.22 34572
4579.09 34098.8
4581.96 34003.5
4584.83 33695.5
4587.71 33345.1
4590.58 33242.3
4593.45 32782.3
4596.32 32350.5
4599.19 32112.4
4602.06 31814
4604.93 31601.2
4607.8 31212.3
4610.67 30722.2
4613.54 30546.7
4616.41 30326.7
4619.29 29930.8
4622.16 29730.1
4625.03 29350.6
4627.9 28885.6
4630.77 28491.7
4633.64 28247.8
4636.51 28041.4
4639.38 27765.4
4642.25 27291.4
4645.12 26995.7
4647.99 26726
4650.87 26257.2
4653.74 26042
4656.61 25666.9
4659.48 25153.9
4662.35 24924.3
4665.22 24446.9
4668.09 24163.2
4670.96 23881.5
4673.83 23522.3
4676.7 23170
4679.57 22884.9
4682.45 22507.7
4685.32 22122.8
4688.19 21786.2
4691.06 21469.4
4693.93 21252.1
4696.8 20769.6
4699.67 20320
4702.54 20297.9
4705.41 19803.7
4708.28 19329.8
4711.15 19105.3
4714.03 18726.7
4716.9 18526.5
4719.77 18320.1
4722.64 17789.9
4725.51 17496.2
4728.38 17283.9
4731.25 16926.5
4734.12 16576.1
4736.99 16193.3
4739.86 16023.5
4742.73 15892.5
4745.6 15358
4748.48 15132.5
4751.35 14849.3
4754.22 14390
4757.09 14261.3
4759.96 13992.7
4762.83 13617.2
4765.7 13335.9
4768.57 12963.7
4771.44 12719.5
4774.31 12598.7
4777.18 12181.2
4780.06 11864
4782.93 11677.9
4785.8 11275.9
4788.67 11243.8
4791.54 10819.9
4794.41 10484.6
4797.28 10345.2
4800.15 10112.9
4803.02 9942.97
4805.89 9680.63
4808.76 9443.29
4811.64 9064.87
4814.51 8917.33
4817.38 8922.57
4820.25 8540.18
4823.12 8419.85
4825.99 8257.96
4828.86 7902.32
4831.73 7587.35
4834.6 7360.92
4837.47 7376.99
4840.34 7082.82
4843.22 7001.67
4846.09 6829.02
4848.96 6552.19
4851.83 6425.54
4854.7 6497.52
4857.57 6156.92
4860.44 5887.89
4863.31 5706.62
4866.18 5512.55
4869.05 5330.26
4871.92 5213.8
4874.8 5024.95
4877.67 5080.07
4880.54 4938.48
4883.41 4677.67
4886.28 4785.08
4889.15 4505.76
4892.02 4339.49
4894.89 4187.89
4897.76 3995.86
4900.63 3908.15
4903.5 3977.5
4906.38 3695.8
4909.25 3669.62
4912.12 3590.38
4914.99 3371.69
4917.86 3299.54
4920.73 3268.29
4923.6 3103.07
4926.47 3006.74
4929.34 2854.57
4932.21 2777.07
4935.08 2757.53
4937.96 2686.63
4940.83 2726.02
4943.7 2666.72
4946.57 2489.37
4949.44 2395.94
4952.31 2126.78
4955.18 2087.6
4958.05 2313.29
4960.92 2154.64
4963.79 2068.58
4966.67 2134.01
4969.54 1845.8
4972.41 1907.25
4975.28 1841.02
4978.15 1663.23
4981.02 1632.17
4983.89 1849.19
4986.76 1595.69
4989.63 1424.14
4992.5 1426.91
4995.37 1435.31
4998.24 1483.76
5001.12 1288.34
5003.99 1362.78
5006.86 1408.05
5009.73 1058.87
5012.6 1184.17
5015.47 1182.32
5018.34 1075.95
5021.21 1083.99
5024.08 1124.76
5026.95 1006.68
5029.82 1015.54
5032.7 885.69
5035.57 895.57
5038.44 987.818
5041.31 843.123
5044.18 855.176
5047.05 800.396
5049.92 722.853
5052.79 634.044
5055.66 745.539
5058.53 530.128
5061.4 697.691
5064.28 662.017
5067.15 611.13
5070.02 719.657
5072.89 618.876
5075.76 501.826
5078.63 607.949
5081.5 583.677
5084.37 441.641
5087.24 430.679
5090.11 407.017
5092.98 429.02
5095.86 330.015
5098.73 488.073
5101.6 536.099
5104.47 348.775
5107.34 330.776
5110.21 402.918
5113.08 380.344
5115.95 392.067
5118.82 415.271
5121.69 297.935
5124.56 262.403
5127.44 418.633
5130.31 415.609
5133.18 425.339
5136.05 359.124
5138.92 440.847
5141.79 331.491
5144.66 325.843
5147.53 324.423
5150.4 317.702
5153.27 426.069
5156.14 392.075
5159.02 337.054
5161.89 339.844
5164.76 401.392
5167.63 319.686
5170.5 395.305
5173.37 498.21
5176.24 377.369
5179.11 372.055
5181.98 367.815
5184.85 424.392
5187.72 401.247
5190.6 390.075
5193.47 379.665
5196.34 365.968
5199.21 390.354
5202.08 474.272
5204.95 476.782
5207.82 524.831
5210.69 574.464
5213.56 536.571
5216.43 418.254
5219.3 451.372
5222.18 518.411
5225.05 519.228
5227.92 316.551
5230.79 418.246
5233.66 573.993
5236.53 605.891
5239.4 456.223
5242.27 544.937
5245.14 564.774
5248.01 441.325
5250.88 507.689
5253.75 612.963
5256.63 636.756
5259.5 554.352
5262.37 447.538
5265.24 475.044
5268.11 628.743
5270.98 611.517
5273.85 591.978
5276.72 547.883
5279.59 555.791
5282.46 554.554
5285.33 427.457
5288.21 441.341
5291.08 744.171
5293.95 726.846
5296.82 630.724
5299.69 573.233
5302.56 511.223
5305.43 609.02
5308.3 562.547
5311.17 599.36
5314.04 662.067
5316.92 627.203
5319.79 640.722
5322.66 578.828
5325.53 694.88
5328.4 682.205
5331.27 731.567
5334.14 673.11
5337.01 819.029
5339.88 585.204
5342.75 573.555
5345.62 629.048
5348.5 753.062
5351.37 614.598
5354.24 656.615
5357.11 729
5359.98 590.808
5362.85 571.639
5365.72 493.431
5368.59 645.174
5371.46 697.183
5374.33 461.602
5377.2 614.762
5380.07 581.641
5382.95 506.259
5385.82 647.028
5388.69 694.357
5391.56 546.348
5394.43 657.735
5397.3 647.822
5400.17 542.591
5403.04 682.032
5405.91 619.108
5408.78 639.677
5411.65 738.525
5414.53 589.086
5417.4 738.776
5420.27 653.625
5423.14 407.898
5426.01 594.296
5428.88 662.812
5431.75 509.124
5434.62 631.319
5437.49 549.303
5440.36 528.005
5443.23 559.055
5446.11 558.252
5448.98 523.705
5451.85 513.218
5454.72 505.384
5457.59 602.239
5460.46 458.787
5463.33 554.83
5466.2 512.473
5469.07 617.087
5471.94 578.521
5474.81 633.472
5477.69 538.787
5480.56 494.238
5483.43 593.751
5486.3 620.738
5489.17 476.971
5492.04 536.107
5494.91 445.353
5497.78 487.308
5500.65 409.989
5503.52 538.835
5506.4 538.161
5509.27 582.171
5512.14 542.829
5515.01 673.203
5517.88 517.583
5520.75 418.003
5523.62 474.084
5526.49 513.222
5529.36 442.532
5532.23 577.95
5535.1 548.329
5537.97 609.127
5540.85 481.816
5543.72 461.444
5546.59 583.409
5549.46 541.252
5552.33 490.549
5555.2 465.1
5558.07 478.907
5560.94 483.138
5563.81 479.522
5566.68 520.566
5569.55 571.346
5572.43 507.111
5575.3 532.393
5578.17 496.218
5581.04 489.024
5583.91 527.303
5586.78 617.319
5589.65 497.752
5592.52 617.789
5595.39 470.292
5598.26 436.764
5601.13 510.755
5604.01 585.237
5606.88 545.984
5609.75 506.217
5612.62 467.974
5615.49 506.418
5618.36 467.528
5621.23 523.286
5624.1 454.681
5626.97 563.511
5629.84 474.786
5632.71 478.647
5635.59 452.69
5638.46 439.927
5641.33 614.801
5644.2 640.242
5647.07 462.671
5649.94 477.085
5652.81 515.647
5655.68 472.686
5658.55 464.762
5661.42 422.761
5664.29 448.817
5667.17 560.651
5670.04 574.247
5672.91 534.381
5675.78 533.908
5678.65 480.207
5681.52 523.003
5684.39 516.908
5687.26 447.578
5690.13 644.631
5693 574.374
5695.87 473.024
5698.75 467.126
5701.62 469.787
5704.49 456.226
5707.36 501.053
5710.23 427.395
5713.1 471.675
5715.97 535.241
5718.84 551.423
5721.71 462.46
5724.58 388.832
5727.45 421.795
5730.33 583.742
5733.2 535.154
5736.07 425.909
5738.94 503.514
5741.81 524.205
5744.68 497.697
5747.55 429.963
5750.42 504.963
5753.29 412.519
5756.16 385.444
5759.03 327.261
5761.9 442.705
5764.78 464.259
5767.65 356.424
5770.52 582.681
5773.39 450.363
5776.26 472.339
5779.13 556.209
5782 498.228
5784.87 487.97
5787.74 448.476
5790.61 452.075
5793.48 497.875
5796.36 454.026
5799.23 503.085
5802.1 605.387
5804.97 501.614
5807.84 483.873
5810.71 531.087
5813.58 462.872
5816.45 423.432
5819.32 473.006
5822.19 416.952
5825.06 315.027
5827.94 597.21
5830.81 594.208
5833.68 523.739
5836.55 579.054
5839.42 441.85
5842.29 463.635
5845.16 399.077
5848.03 373.676
5850.9 478.69
5853.77 473.405
5856.65 411.514
5859.52 478.682
5862.39 356.045
5865.26 439.575
5868.13 461.877
5871 421.29
5873.87 466.655
5876.74 542.561
