scanname 扫描323
timestamp 1/1/1970 02:15
scancount 2
laserwavenum 850.5
measurementstate Unknown
scanmode Identification
snr 4.72796 4.72796 4.72796
replacelist 0
peaks 17
741.027 0.341978 0 2.10959 0.000984492
872.69 0.224764 0 6.05646 0.000614859
988.732 0.192762 0 2.9789 0.000161733
1020.81 0.192079 0 4.68835 0.000228133
1078.26 0.213313 0 1.27251 0.000153762
1153.01 0.231794 0 1.43147 0.000189682
1162.58 0.232657 0 1.91039 0.000233019
1219.7 0.241202 0 1.6865 0.000239886
1237.76 0.235076 0 2.22778 0.000263739
1310.18 0.265683 0 3.65011 0.00034895
1414.33 0.221867 0 5.20048 0.000460098
1456.02 0.255275 0 4.01739 0.000419122
1487.38 0.290322 0 8.35714 0.00080254
1514.08 0.266636 0 13.0908 0.00118883
1587 0.274721 0 4.33427 0.000443712
3379.18 0.259296 0 3.67535 0.000709718
3402.14 0.186462 0 0.831779 0.000271371
finalresult Pure single 1A219	0.118086
spectrum 2048
0 -2.74807
2.86447 -2.95489
5.72895 -6.53861
8.59342 -6.41438
11.4579 -7.22979
14.3224 -3.30723
17.1868 -1.37427
20.0513 -2.32846
22.9158 -4.29791
25.7803 -4.67031
28.6447 -5.6486
31.5092 -5.45895
34.3737 -6.5102
37.2382 -5.6997
40.1026 -5.51562
42.9671 -3.32327
45.8316 -3.05307
48.696 -4.33351
51.5605 -4.53051
54.425 -4.29478
57.2895 -4.41902
60.1539 -2.97879
63.0184 -2.77503
65.8829 -3.56416
68.7474 -2.66193
71.6118 -3.36516
74.4763 -3.82776
77.3408 -4.6152
80.2053 -6.24256
83.0697 -3.55477
85.9342 -4.22229
88.7987 -5.12846
91.6632 -5.59116
94.5276 -6.31988
97.3921 -6.42689
100.257 -6.27282
103.121 -6.01528
105.986 -5.43882
108.85 -4.55353
111.714 -3.16635
114.579 -3.85832
117.443 -5.8618
120.308 -4.22323
123.172 -3.95907
126.037 -4.47936
128.901 -5.0211
131.766 -5.49264
134.63 -5.71262
137.495 -6.39194
140.359 -4.43928
143.224 -5.61688
146.088 -4.73095
148.953 -5.61001
151.817 -4.69531
154.682 -4.92713
157.546 -4.68431
160.411 -4.74581
163.275 -4.91084
166.139 -5.89855
169.004 -5.22864
171.868 -5.08311
174.733 -5.94958
177.597 -6.78258
180.462 -5.70748
183.326 -6.30985
186.191 -5.42598
189.055 -5.04641
191.92 -4.44221
194.784 -3.5834
197.649 -5.18635
200.513 -5.92766
203.378 -6.62905
206.242 -5.62998
209.107 -4.68249
211.971 -4.68731
214.836 -4.16987
217.7 -3.69277
220.564 -3.05661
223.429 -5.2826
226.293 -4.83594
229.158 -7.18334
232.022 -6.23387
234.887 -7.63256
237.751 -6.56028
240.616 -4.48898
243.48 -4.9174
246.345 -4.09349
249.209 -3.93723
252.074 -2.25514
254.938 -3.24972
257.803 -5.16341
260.667 -5.4878
263.532 -5.23156
266.396 -4.41953
269.26 -4.49957
272.125 -2.79221
274.989 -4.91975
277.854 -4.48573
280.718 -5.36522
283.583 -4.97185
286.447 -4.56444
289.312 -5.0274
292.176 -5.93022
295.041 -4.41884
297.905 -2.8903
300.77 -4.30559
303.634 -4.40643
306.499 -5.86485
309.363 -5.2643
312.228 -5.85419
315.092 -6.14193
317.957 -6.61382
320.821 -5.01559
323.686 -5.231
326.55 -5.36958
329.414 -5.20692
332.279 -5.78404
335.143 -5.40179
338.008 -3.50167
340.872 -4.72638
343.737 -5.91878
346.601 -5.2968
349.466 -5.9724
352.33 -5.2013
355.195 -5.33494
358.059 -6.66919
360.924 -5.09715
363.788 -4.84893
366.653 -5.42101
369.517 -8.20397
372.382 -7.60374
375.246 -6.3229
378.111 -5.02571
380.975 -5.47145
383.839 -6.18339
386.704 -5.22325
389.568 -5.17546
392.433 -5.05656
395.297 -6.61131
398.162 -6.2722
401.026 -7.31297
403.891 -5.39441
406.755 -5.0516
409.62 -6.27135
412.484 -5.72836
415.349 -4.42802
418.213 -6.45942
421.078 -5.82802
423.942 -4.97028
426.807 -5.87026
429.671 -4.42515
432.535 -4.11197
435.4 -3.34845
438.264 -4.15384
441.129 -5.33064
443.993 -5.39337
446.858 -4.08426
449.722 -4.11704
452.587 -5.55219
455.451 -4.81858
458.316 -5.04204
461.18 -5.40504
464.045 -6.12391
466.909 -4.48671
469.774 -5.24177
472.638 -5.30355
475.503 -5.30448
478.367 -6.51385
481.232 -5.26242
484.096 -3.82124
486.961 -3.75277
489.825 -3.89666
492.689 -5.40431
495.554 -5.57494
498.418 -6.75663
501.283 -4.83896
504.147 -6.36626
507.012 -5.35875
509.876 -6.39519
512.741 -4.98329
515.605 -3.8448
518.47 -3.49305
521.334 -4.8986
524.199 -4.92446
527.063 -4.4827
529.928 -4.20994
532.792 -4.86365
535.657 -4.85253
538.521 -6.55597
541.385 -6.25362
544.25 -5.14996
547.115 -5.53487
549.979 -4.30953
552.843 -4.12446
555.708 -4.92636
558.572 -5.44002
561.437 -5.69835
564.301 -3.55157
567.166 -3.26507
570.03 -4.83247
572.895 -3.37863
575.759 -3.71512
578.624 -4.15485
581.488 -4.08211
584.353 -2.64061
587.217 -2.75371
590.082 -2.34933
592.946 -0.615462
595.81 0.054322
598.675 0.905778
601.539 0.628461
604.404 0.31001
607.268 -1.14698
610.133 -0.568921
612.997 -0.876667
615.862 -0.17441
618.726 0.384078
621.591 1.8245
624.455 3.17949
627.32 2.58254
630.184 1.59644
633.049 0.819013
635.913 0.99214
638.778 0.912363
641.642 1.56262
644.507 1.68657
647.371 2.65784
650.235 2.88181
653.1 2.69023
655.964 2.13657
658.829 1.76708
661.693 1.69053
664.558 1.80762
667.422 1.9614
670.287 2.68612
673.151 3.17047
676.016 3.32793
678.88 3.16887
681.745 2.8671
684.609 3.05965
687.474 2.86369
690.338 2.58928
693.203 2.13398
696.067 2.05066
698.932 2.69536
701.796 2.62002
704.66 1.82619
707.525 1.48301
710.389 1.48861
713.254 1.68902
716.118 1.82129
718.983 2.13826
721.847 2.37028
724.712 2.63024
727.576 2.66409
730.441 2.78702
733.305 2.87452
736.17 3.06253
739.034 3.29429
741.899 3.63651
744.763 3.3492
747.628 3.0274
750.492 2.42656
753.357 1.6545
756.221 1.34128
759.086 1.21469
761.95 1.10459
764.814 1.16572
767.679 1.23788
770.543 1.39188
773.408 1.42301
776.272 1.46297
779.137 1.37967
782.001 1.3049
784.866 1.33999
787.73 1.37376
790.595 1.42876
793.459 1.53964
796.324 1.56051
799.188 1.5258
802.053 1.47692
804.917 1.41672
807.782 1.39125
810.646 1.35786
813.51 1.43058
816.375 1.48072
819.239 1.5566
822.104 1.5861
824.968 1.56473
827.833 1.53578
830.697 1.50453
833.562 1.49055
836.426 1.50221
839.291 1.56458
842.155 1.57865
845.02 1.63629
847.884 1.64295
850.749 1.62785
853.613 1.60507
856.478 1.58692
859.342 1.61629
862.207 1.68854
865.071 1.78993
867.935 1.92824
870.8 2.19572
873.664 2.45868
876.529 2.3455
879.393 1.82947
882.258 1.49417
885.122 1.40509
887.987 1.44742
890.851 1.5061
893.716 1.54739
896.58 1.61879
899.445 1.63263
902.309 1.60313
905.174 1.57468
908.038 1.55339
910.903 1.54814
913.767 1.57091
916.632 1.60864
919.496 1.61372
922.36 1.62842
925.225 1.59717
928.089 1.58821
930.954 1.5901
933.818 1.59882
936.683 1.62201
939.547 1.64689
942.412 1.67424
945.276 1.69586
948.141 1.71586
951.005 1.68234
953.87 1.67239
956.734 1.69276
959.599 1.70031
962.463 1.71472
965.328 1.75152
968.192 1.78665
971.057 1.80989
973.921 1.84452
976.785 1.85609
979.65 1.82017
982.514 1.83553
985.379 1.88314
988.243 1.89617
991.108 1.98098
993.972 1.97989
996.837 1.73006
999.701 1.67816
1002.57 1.66216
1005.43 1.67167
1008.29 1.68835
1011.16 1.72781
1014.02 1.77257
1016.89 1.848
1019.75 1.94526
1022.62 2.05522
1025.48 1.81667
1028.35 1.72086
1031.21 1.63307
1034.07 1.57201
1036.94 1.60433
1039.8 1.63401
1042.67 1.67428
1045.53 1.70465
1048.4 1.71255
1051.26 1.70022
1054.13 1.71041
1056.99 1.7098
1059.86 1.73777
1062.72 1.79034
1065.58 1.85403
1068.45 1.96877
1071.31 2.13731
1074.18 2.15741
1077.04 1.95068
1079.91 2.01624
1082.77 2.23086
1085.64 2.17942
1088.5 1.95
1091.36 1.80924
1094.23 1.80094
1097.09 1.80883
1099.96 1.81437
1102.82 1.79574
1105.69 1.79009
1108.55 1.79321
1111.42 1.83171
1114.28 1.89159
1117.14 1.91984
1120.01 1.95563
1122.87 1.90899
1125.74 1.85684
1128.6 1.81922
1131.47 1.83057
1134.33 1.86343
1137.2 1.9046
1140.06 1.98948
1142.92 2.08317
1145.79 2.26006
1148.65 2.41194
1151.52 2.21423
1154.38 2.22122
1157.25 2.35347
1160.11 2.22036
1162.98 2.13145
1165.84 2.19956
1168.71 2.3068
1171.57 2.455
1174.43 2.02254
1177.3 1.65257
1180.16 1.75243
1183.03 1.80518
1185.89 1.84742
1188.76 1.90047
1191.62 1.9326
1194.49 1.97944
1197.35 2.01444
1200.21 1.9924
1203.08 2.01084
1205.94 2.02336
1208.81 2.09078
1211.67 2.16476
1214.54 2.30751
1217.4 2.462
1220.27 2.50495
1223.13 2.37864
1225.99 2.26084
1228.86 2.2148
1231.72 2.20252
1234.59 2.2353
1237.45 2.29729
1240.32 2.42002
1243.18 2.40855
1246.05 2.12065
1248.91 1.9335
1251.78 1.86411
1254.64 1.88131
1257.5 1.89144
1260.37 1.9107
1263.23 1.95397
1266.1 1.98464
1268.96 1.99785
1271.83 1.98827
1274.69 1.99273
1277.56 1.98614
1280.42 2.02711
1283.28 2.09123
1286.15 2.12757
1289.01 2.17239
1291.88 2.26214
1294.74 2.29418
1297.61 2.32572
1300.47 2.37861
1303.34 2.51604
1306.2 2.64567
1309.06 2.56815
1311.93 2.55965
1314.79 2.61548
1317.66 2.56462
1320.52 2.31225
1323.39 1.98061
1326.25 1.75205
1329.12 1.71667
1331.98 1.67889
1334.84 1.67185
1337.71 1.65777
1340.57 1.57593
1343.44 1.42302
1346.3 1.22964
1349.17 1.14682
1352.03 1.12805
1354.9 1.16649
1357.76 1.2242
1360.62 1.29638
1363.49 1.37484
1366.35 1.44489
1369.22 1.50909
1372.08 1.5155
1374.95 1.53488
1377.81 1.55717
1380.68 1.60216
1383.54 1.65459
1386.41 1.67924
1389.27 1.75054
1392.13 1.80479
1395 1.76007
1397.86 1.735
1400.73 1.79437
1403.59 1.79591
1406.46 1.84745
1409.32 1.95027
1412.19 2.11784
1415.05 2.41305
1417.91 2.42655
1420.78 1.83714
1423.64 1.63622
1426.51 1.64658
1429.37 1.68941
1432.24 1.80955
1435.1 1.83531
1437.97 1.91756
1440.83 1.97236
1443.69 2.04975
1446.56 2.06665
1449.42 2.18464
1452.29 2.46957
1455.15 2.73248
1458.02 2.68784
1460.88 2.40011
1463.75 2.12811
1466.61 2.15457
1469.47 2.27917
1472.34 2.19634
1475.2 2.25797
1478.07 2.37897
1480.93 2.48489
1483.8 2.63137
1486.66 2.76356
1489.53 2.81048
1492.39 2.98306
1495.26 2.65302
1498.12 1.72803
1500.98 1.3913
1503.85 1.4943
1506.71 1.82408
1509.58 2.46381
1512.44 2.705
1515.31 2.70268
1518.17 2.62345
1521.04 1.91929
1523.9 1.31869
1526.76 0.90447
1529.63 0.793355
1532.49 0.726702
1535.36 0.781354
1538.22 0.824131
1541.09 0.925089
1543.95 0.999867
1546.82 1.08881
1549.68 1.15431
1552.54 1.26713
1555.41 1.4405
1558.27 1.45377
1561.14 1.75245
1564 1.83717
1566.87 1.91597
1569.73 1.93101
1572.6 2.13214
1575.46 2.09098
1578.33 2.44729
1581.19 2.72265
1584.05 2.66763
1586.92 2.70636
1589.78 2.63881
1592.65 2.61797
1595.51 2.49012
1598.38 2.14858
1601.24 1.78031
1604.11 1.44065
1606.97 1.18911
1609.83 0.935777
1612.7 0.816022
1615.56 0.687753
1618.43 0.600495
1621.29 0.570944
1624.16 0.554929
1627.02 0.570909
1629.89 0.597704
1632.75 0.625471
1635.61 0.652542
1638.48 0.654999
1641.34 0.683436
1644.21 0.661457
1647.07 0.631523
1649.94 0.687052
1652.8 0.630736
1655.67 0.708555
1658.53 0.747566
1661.39 0.760702
1664.26 0.774566
1667.12 0.768823
1669.99 0.733915
1672.85 0.72242
1675.72 0.723454
1678.58 0.770065
1681.45 0.814405
1684.31 0.819196
1687.18 0.864964
1690.04 0.876348
1692.9 0.907522
1695.77 0.877966
1698.63 0.86832
1701.5 0.868426
1704.36 0.888663
1707.23 0.930329
1710.09 0.957085
1712.96 0.983094
1715.82 0.933461
1718.68 0.915181
1721.55 0.919876
1724.41 0.933937
1727.28 0.954673
1730.14 1.00421
1733.01 0.963242
1735.87 0.992837
1738.74 1.01087
1741.6 0.999815
1744.46 0.988746
1747.33 0.965598
1750.19 0.945925
1753.06 0.964718
1755.92 0.991465
1758.79 1.01641
1761.65 1.01578
1764.52 1.03165
1767.38 1.00512
1770.24 1.00663
1773.11 0.964969
1775.97 1.01542
1778.84 1.02903
1781.7 1.05644
1784.57 1.06981
1787.43 1.09435
1790.3 1.07013
1793.16 1.02163
1796.02 1.01807
1798.89 0.995247
1801.75 1.00013
1804.62 1.02702
1807.48 1.05598
1810.35 1.0453
1813.21 1.05583
1816.08 1.01898
1818.94 0.998521
1821.81 0.983821
1824.67 0.980017
1827.53 0.982792
1830.4 0.991135
1833.26 1.04089
1836.13 1.04327
1838.99 1.03644
1841.86 0.988679
1844.72 0.935827
1847.59 0.924139
1850.45 0.925557
1853.31 0.960833
1856.18 0.976997
1859.04 0.989872
1861.91 1.00893
1864.77 1.0272
1867.64 0.943414
1870.5 0.928606
1873.37 0.924901
1876.23 0.918231
1879.09 0.934814
1881.96 0.947658
1884.82 0.976652
1887.69 0.935701
1890.55 0.907179
1893.42 0.863914
1896.28 0.839115
1899.15 0.863071
1902.01 0.860082
1904.87 0.875745
1907.74 0.903647
1910.6 0.909359
1913.47 0.926767
1916.33 0.875599
1919.2 0.833354
1922.06 0.808613
1924.93 0.79914
1927.79 0.85487
1930.66 0.879863
1933.52 0.890837
1936.38 0.879124
1939.25 0.820383
1942.11 0.742469
1944.98 0.696532
1947.84 0.703102
1950.71 0.679264
1953.57 0.697178
1956.44 0.687459
1959.3 0.692721
1962.16 0.676298
1965.03 0.656643
1967.89 0.561572
1970.76 0.489242
1973.62 0.487332
1976.49 0.50441
1979.35 0.583856
1982.22 0.613242
1985.08 0.66363
1987.94 0.652555
1990.81 0.620178
1993.67 0.594088
1996.54 0.573427
1999.4 0.568556
2002.27 0.590586
2005.13 0.640114
2008 0.659312
2010.86 0.651901
2013.72 0.594833
2016.59 0.560119
2019.45 0.522914
2022.32 0.515922
2025.18 0.520131
2028.05 0.540422
2030.91 0.587301
2033.78 0.600618
2036.64 0.615331
2039.51 0.584347
2042.37 0.600739
2045.23 0.586764
2048.1 0.59928
2050.96 0.681647
2053.83 0.743733
2056.69 0.793452
2059.56 0.81224
2062.42 0.812989
2065.29 0.775857
2068.15 0.755429
2071.01 0.74316
2073.88 0.800638
2076.74 0.821675
2079.61 0.875284
2082.47 0.902783
2085.34 0.902781
2088.2 0.897412
2091.07 0.837905
2093.93 0.860063
2096.79 0.842493
2099.66 0.856636
2102.52 0.868374
2105.39 0.916722
2108.25 0.9173
2111.12 0.917711
2113.98 0.903557
2116.85 0.880366
2119.71 0.868524
2122.58 0.845864
2125.44 0.862926
2128.3 0.877975
2131.17 0.89499
2134.03 0.852182
2136.9 0.804738
2139.76 0.739639
2142.63 0.656924
2145.49 0.629078
2148.36 0.64761
2151.22 0.654549
2154.08 0.659679
2156.95 0.652777
2159.81 0.621397
2162.68 0.624577
2165.54 0.603314
2168.41 0.567653
2171.27 0.588381
2174.14 0.608358
2177 0.695427
2179.86 0.72785
2182.73 0.749023
2185.59 0.75614
2188.46 0.69958
2191.32 0.688259
2194.19 0.689613
2197.05 0.723039
2199.92 0.747509
2202.78 0.799204
2205.64 0.822896
2208.51 0.844787
2211.37 0.802895
2214.24 0.785906
2217.1 0.753368
2219.97 0.769684
2222.83 0.792758
2225.7 0.835953
2228.56 0.880262
2231.43 0.909312
2234.29 0.938161
2237.15 0.91109
2240.02 0.875648
2242.88 0.878659
2245.75 0.870726
2248.61 0.913636
2251.48 0.963245
2254.34 0.973882
2257.21 1.00941
2260.07 1.00147
2262.93 0.997071
2265.8 0.981868
2268.66 0.974563
2271.53 1.01549
2274.39 1.04907
2277.26 1.09367
2280.12 1.11671
2282.99 1.15183
2285.85 1.15134
2288.71 1.146
2291.58 1.14033
2294.44 1.16154
2297.31 1.19356
2300.17 1.22874
2303.04 1.26735
2305.9 1.28012
2308.77 1.30188
2311.63 1.2945
2314.49 1.26614
2317.36 1.28427
2320.22 1.29263
2323.09 1.33477
2325.95 1.37458
2328.82 1.39014
2331.68 1.38234
2334.55 1.35617
2337.41 1.32999
2340.28 1.26949
2343.14 1.28444
2346 1.32037
2348.87 1.38381
2351.73 1.39035
2354.6 1.39103
2357.46 1.38489
2360.33 1.33164
2363.19 1.27929
2366.06 1.26339
2368.92 1.24748
2371.78 1.26725
2374.65 1.29135
2377.51 1.28925
2380.38 1.30709
2383.24 1.29627
2386.11 1.28083
2388.97 1.27499
2391.84 1.25619
2394.7 1.26114
2397.56 1.26906
2400.43 1.28121
2403.29 1.29293
2406.16 1.28409
2409.02 1.25068
2411.89 1.23063
2414.75 1.21422
2417.62 1.20434
2420.48 1.21923
2423.34 1.2308
2426.21 1.26944
2429.07 1.2614
2431.94 1.258
2434.8 1.23913
2437.67 1.20573
2440.53 1.19228
2443.4 1.22225
2446.26 1.22508
2449.12 1.25799
2451.99 1.28275
2454.85 1.27996
2457.72 1.27356
2460.58 1.25128
2463.45 1.24304
2466.31 1.23464
2469.18 1.22941
2472.04 1.24558
2474.91 1.28094
2477.77 1.30794
2480.63 1.30514
2483.5 1.30415
2486.36 1.27275
2489.23 1.2498
2492.09 1.20669
2494.96 1.23249
2497.82 1.26218
2500.69 1.27839
2503.55 1.28213
2506.41 1.28477
2509.28 1.27065
2512.14 1.25867
2515.01 1.25288
2517.87 1.25379
2520.74 1.27072
2523.6 1.30598
2526.47 1.33904
2529.33 1.34619
2532.19 1.33428
2535.06 1.31528
2537.92 1.2874
2540.79 1.27362
2543.65 1.268
2546.52 1.30595
2549.38 1.31902
2552.25 1.33747
2555.11 1.31677
2557.98 1.28183
2560.84 1.27171
2563.7 1.26175
2566.57 1.25467
2569.43 1.28008
2572.3 1.29703
2575.16 1.31454
2578.03 1.34405
2580.89 1.32429
2583.76 1.29421
2586.62 1.26501
2589.48 1.28455
2592.35 1.28747
2595.21 1.28872
2598.08 1.34329
2600.94 1.37344
2603.81 1.3699
2606.67 1.34291
2609.54 1.34395
2612.4 1.33688
2615.26 1.34012
2618.13 1.35165
2620.99 1.38506
2623.86 1.41305
2626.72 1.41096
2629.59 1.4204
2632.45 1.4113
2635.32 1.41633
2638.18 1.40836
2641.04 1.40182
2643.91 1.41551
2646.77 1.45068
2649.64 1.47363
2652.5 1.48901
2655.37 1.487
2658.23 1.48114
2661.1 1.46082
2663.96 1.44478
2666.82 1.44528
2669.69 1.45096
2672.55 1.47764
2675.42 1.48828
2678.28 1.48335
2681.15 1.47813
2684.01 1.45945
2686.88 1.44329
2689.74 1.43047
2692.61 1.44842
2695.47 1.4583
2698.33 1.47541
2701.2 1.49063
2704.06 1.48016
2706.93 1.46492
2709.79 1.46056
2712.66 1.45501
2715.52 1.44871
2718.39 1.46073
2721.25 1.48654
2724.11 1.50265
2726.98 1.51355
2729.84 1.51533
2732.71 1.50621
2735.57 1.48354
2738.44 1.46369
2741.3 1.46031
2744.17 1.4828
2747.03 1.50522
2749.89 1.52295
2752.76 1.53477
2755.62 1.51801
2758.49 1.49376
2761.35 1.48182
2764.22 1.46414
2767.08 1.44237
2769.95 1.47403
2772.81 1.49726
2775.68 1.49269
2778.54 1.47999
2781.4 1.46628
2784.27 1.45499
2787.13 1.44972
2790 1.44906
2792.86 1.45581
2795.73 1.47555
2798.59 1.49975
2801.46 1.49829
2804.32 1.4952
2807.18 1.48564
2810.05 1.45093
2812.91 1.44915
2815.78 1.47116
2818.64 1.50017
2821.51 1.50757
2824.37 1.51881
2827.24 1.51281
2830.1 1.51276
2832.96 1.49016
2835.83 1.46799
2838.69 1.45976
2841.56 1.46877
2844.42 1.47774
2847.29 1.49304
2850.15 1.51239
2853.02 1.50132
2855.88 1.48911
2858.74 1.47409
2861.61 1.45755
2864.47 1.45339
2867.34 1.46367
2870.2 1.47823
2873.07 1.50827
2875.93 1.51353
2878.8 1.50522
2881.66 1.48403
2884.53 1.46011
2887.39 1.45702
2890.25 1.49336
2893.12 1.49263
2895.98 1.51356
2898.85 1.53327
2901.71 1.52385
2904.58 1.51283
2907.44 1.5069
2910.31 1.49952
2913.17 1.49381
2916.03 1.50099
2918.9 1.52297
2921.76 1.54882
2924.63 1.5411
2927.49 1.54014
2930.36 1.52763
2933.22 1.50619
2936.09 1.47462
2938.95 1.48304
2941.81 1.49793
2944.68 1.5143
2947.54 1.54776
2950.41 1.53709
2953.27 1.53061
2956.14 1.51359
2959 1.4987
2961.87 1.47851
2964.73 1.4923
2967.59 1.52671
2970.46 1.55828
2973.32 1.58651
2976.19 1.58296
2979.05 1.56918
2981.92 1.56142
2984.78 1.54957
2987.65 1.52935
2990.51 1.56194
2993.38 1.59029
2996.24 1.61063
2999.1 1.63097
3001.97 1.62491
3004.83 1.61711
3007.7 1.62208
3010.56 1.61347
3013.43 1.63385
3016.29 1.66786
3019.16 1.71681
3022.02 1.74939
3024.88 1.75792
3027.75 1.73132
3030.61 1.71584
3033.48 1.73813
3036.34 1.74499
3039.21 1.76818
3042.07 1.7425
3044.94 1.68436
3047.8 1.64862
3050.66 1.64576
3053.53 1.62224
3056.39 1.55747
3059.26 1.50051
3062.12 1.46797
3064.99 1.46134
3067.85 1.48789
3070.72 1.49614
3073.58 1.52671
3076.44 1.51652
3079.31 1.50401
3082.17 1.52226
3085.04 1.50382
3087.9 1.48714
3090.77 1.48377
3093.63 1.51055
3096.5 1.53891
3099.36 1.53469
3102.23 1.52059
3105.09 1.47771
3107.95 1.44151
3110.82 1.39687
3113.68 1.40169
3116.55 1.43173
3119.41 1.45196
3122.28 1.47121
3125.14 1.45721
3128.01 1.43759
3130.87 1.41962
3133.73 1.40177
3136.6 1.4097
3139.46 1.42343
3142.33 1.43815
3145.19 1.4681
3148.06 1.46237
3150.92 1.45718
3153.79 1.44163
3156.65 1.43528
3159.51 1.41577
3162.38 1.41204
3165.24 1.426
3168.11 1.47606
3170.97 1.51069
3173.84 1.48908
3176.7 1.4858
3179.57 1.43336
3182.43 1.40181
3185.29 1.41674
3188.16 1.42704
3191.02 1.42703
3193.89 1.45473
3196.75 1.48237
3199.62 1.48598
3202.48 1.45293
3205.35 1.4127
3208.21 1.40316
3211.07 1.40725
3213.94 1.42501
3216.8 1.44041
3219.67 1.44573
3222.53 1.45968
3225.4 1.45249
3228.26 1.42374
3231.13 1.4043
3233.99 1.40391
3236.86 1.43424
3239.72 1.42455
3242.58 1.44137
3245.45 1.49678
3248.31 1.49028
3251.18 1.43941
3254.04 1.44218
3256.91 1.42595
3259.77 1.40801
3262.64 1.42196
3265.5 1.44002
3268.36 1.48322
3271.23 1.52151
3274.09 1.50342
3276.96 1.4749
3279.82 1.44865
3282.69 1.41735
3285.55 1.43597
3288.42 1.46368
3291.28 1.48904
3294.14 1.521
3297.01 1.52571
3299.87 1.49985
3302.74 1.48851
3305.6 1.47331
3308.47 1.46433
3311.33 1.46558
3314.2 1.48365
3317.06 1.54287
3319.93 1.55102
3322.79 1.57622
3325.65 1.54491
3328.52 1.52593
3331.38 1.49131
3334.25 1.52395
3337.11 1.54086
3339.98 1.57491
3342.84 1.62544
3345.71 1.62758
3348.57 1.66348
3351.43 1.62082
3354.3 1.6128
3357.16 1.60561
3360.03 1.64789
3362.89 1.6984
3365.76 1.79496
3368.62 1.91959
3371.49 2.05084
3374.35 2.26479
3377.21 2.53053
3380.08 2.82441
3382.94 2.72
3385.81 2.08017
3388.67 1.73399
3391.54 1.65052
3394.4 1.64534
3397.27 1.68767
3400.13 1.80948
3402.99 1.91175
3405.86 1.96603
3408.72 1.75841
3411.59 1.53314
3414.45 1.45916
3417.32 1.44247
3420.18 1.43902
3423.05 1.4132
3425.91 1.39468
3428.77 1.33598
3431.64 1.33167
3434.5 1.32936
3437.37 1.36379
3440.23 1.38212
3443.1 1.42772
3445.96 1.43849
3448.83 1.4196
3451.69 1.41217
3454.56 1.35559
3457.42 1.35556
3460.28 1.34283
3463.15 1.39699
3466.01 1.43836
3468.88 1.4605
3471.74 1.4504
3474.61 1.42202
3477.47 1.41469
3480.34 1.34874
3483.2 1.34784
3486.06 1.37724
3488.93 1.38622
3491.79 1.45401
3494.66 1.48146
3497.52 1.47391
3500.39 1.4209
3503.25 1.38512
3506.12 1.36655
3508.98 1.38785
3511.84 1.36339
3514.71 1.45973
3517.57 1.44749
3520.44 1.46554
3523.3 1.44019
3526.17 1.42718
3529.03 1.36584
3531.9 1.3496
3534.76 1.38478
3537.62 1.44129
3540.49 1.42577
3543.35 1.44896
3546.22 1.4436
3549.08 1.40881
3551.95 1.37645
3554.81 1.36094
3557.68 1.36233
3560.54 1.3766
3563.41 1.38975
3566.27 1.45244
3569.13 1.47162
3572 1.42717
3574.86 1.41794
3577.73 1.38387
3580.59 1.32562
3583.46 1.35359
3586.32 1.37431
3589.19 1.43505
3592.05 1.47721
3594.91 1.42452
3597.78 1.41157
3600.64 1.37661
3603.51 1.37111
3606.37 1.34537
3609.24 1.40424
3612.1 1.39688
3614.97 1.44169
3617.83 1.47397
3620.69 1.45611
3623.56 1.41718
3626.42 1.35993
3629.29 1.28285
3632.15 1.34437
3635.02 1.3968
3637.88 1.44929
3640.75 1.50427
3643.61 1.5133
3646.47 1.46545
3649.34 1.38572
3652.2 1.37062
3655.07 1.33899
3657.93 1.35048
3660.8 1.42777
3663.66 1.46648
3666.53 1.51009
3669.39 1.43572
3672.26 1.42344
3675.12 1.3792
3677.98 1.37953
3680.85 1.38917
3683.71 1.37015
3686.58 1.38358
3689.44 1.42737
3692.31 1.45905
3695.17 1.4673
3698.04 1.44912
3700.9 1.40711
3703.76 1.42903
3706.63 1.40899
3709.49 1.37832
3712.36 1.40871
3715.22 1.46724
3718.09 1.47702
3720.95 1.45063
3723.82 1.4342
3726.68 1.40139
3729.54 1.40185
3732.41 1.38048
3735.27 1.40416
3738.14 1.47866
3741 1.55327
3743.87 1.4632
3746.73 1.43685
3749.6 1.36195
3752.46 1.37717
3755.32 1.40991
3758.19 1.42572
3761.05 1.48663
3763.92 1.49222
3766.78 1.49757
3769.65 1.48259
3772.51 1.46098
3775.38 1.43896
3778.24 1.37922
3781.11 1.39456
3783.97 1.4539
3786.83 1.4698
3789.7 1.52274
3792.56 1.54546
3795.43 1.53747
3798.29 1.50892
3801.16 1.39456
3804.02 1.45659
3806.89 1.42932
3809.75 1.48991
3812.61 1.55441
3815.48 1.56648
3818.34 1.58098
3821.21 1.48275
3824.07 1.47634
3826.94 1.44509
3829.8 1.47538
3832.67 1.46881
3835.53 1.51602
3838.39 1.51893
3841.26 1.54146
3844.12 1.54871
3846.99 1.52287
3849.85 1.48421
3852.72 1.38455
3855.58 1.40974
3858.45 1.47523
3861.31 1.52724
3864.17 1.55925
3867.04 1.60959
3869.9 1.47161
3872.77 1.46078
3875.63 1.43845
3878.5 1.41265
3881.36 1.42135
3884.23 1.49866
3887.09 1.55544
3889.96 1.60465
3892.82 1.54081
3895.68 1.5369
3898.55 1.44979
3901.41 1.38576
3904.28 1.4316
3907.14 1.49049
3910.01 1.5204
3912.87 1.56841
3915.74 1.56076
3918.6 1.52326
3921.46 1.49815
3924.33 1.46108
3927.19 1.42804
3930.06 1.44075
3932.92 1.4577
3935.79 1.58934
3938.65 1.57614
3941.52 1.59153
3944.38 1.51122
3947.24 1.46904
3950.11 1.42525
3952.97 1.46091
3955.84 1.45746
3958.7 1.47896
3961.57 1.56241
3964.43 1.57059
3967.3 1.55734
3970.16 1.51394
3973.02 1.49481
3975.89 1.45916
3978.75 1.46725
3981.62 1.4653
3984.48 1.52306
3987.35 1.56561
3990.21 1.56766
3993.08 1.54613
3995.94 1.47877
3998.81 1.45528
4001.67 1.4383
4004.53 1.47376
4007.4 1.4841
4010.26 1.58829
4013.13 1.59364
4015.99 1.60368
4018.86 1.54574
4021.72 1.49924
4024.59 1.50148
4027.45 1.4647
4030.31 1.49225
4033.18 1.53816
4036.04 1.59579
4038.91 1.62048
4041.77 1.62073
4044.64 1.55409
4047.5 1.52399
4050.37 1.49282
4053.23 1.52047
4056.09 1.52706
4058.96 1.5695
4061.82 1.59462
4064.69 1.60531
4067.55 1.56815
4070.42 1.51473
4073.28 1.48032
4076.15 1.44952
4079.01 1.42226
4081.88 1.52018
4084.74 1.55484
4087.6 1.57046
4090.47 1.5471
4093.33 1.495
4096.2 1.46083
4099.06 1.38326
4101.93 1.42726
4104.79 1.44951
4107.66 1.53604
4110.52 1.57298
4113.38 1.57685
4116.25 1.5799
4119.11 1.50894
4121.98 1.44076
4124.84 1.40222
4127.71 1.41945
4130.57 1.48884
4133.44 1.53982
4136.3 1.54597
4139.16 1.59891
4142.03 1.53069
4144.89 1.45879
4147.76 1.42398
4150.62 1.41873
4153.49 1.44027
4156.35 1.50088
4159.22 1.54484
4162.08 1.5859
4164.94 1.59262
4167.81 1.51526
4170.67 1.41293
4173.54 1.42278
4176.4 1.43389
4179.27 1.48598
4182.13 1.54663
4185 1.54739
4187.86 1.57791
4190.73 1.56264
4193.59 1.49951
4196.45 1.47135
4199.32 1.4275
4202.18 1.45497
4205.05 1.48027
4207.91 1.53534
4210.78 1.54874
4213.64 1.52963
4216.5 1.49935
4219.37 1.43703
4222.23 1.40157
4225.1 1.40622
4227.96 1.46105
4230.83 1.49973
4233.69 1.54397
4236.56 1.53941
4239.42 1.54464
4242.29 1.48484
4245.15 1.45346
4248.01 1.39532
4250.88 1.36035
4253.74 1.45881
4256.61 1.49448
4259.47 1.54398
4262.34 1.51313
4265.2 1.52424
4268.07 1.5047
4270.93 1.39168
4273.79 1.39568
4276.66 1.43443
4279.52 1.52851
4282.39 1.52568
4285.25 1.54119
4288.12 1.52205
4290.98 1.47752
4293.85 1.43276
4296.71 1.37319
4299.57 1.37344
4302.44 1.44133
4305.3 1.49372
4308.17 1.49312
4311.03 1.54698
4313.9 1.53455
4316.76 1.48165
4319.63 1.4124
4322.49 1.40171
4325.36 1.42962
4328.22 1.45297
4331.08 1.50872
4333.95 1.51384
4336.81 1.50307
4339.68 1.494
4342.54 1.4097
4345.41 1.37009
4348.27 1.44531
4351.14 1.48072
4354 1.53859
4356.86 1.54335
4359.73 1.5653
4362.59 1.49046
4365.46 1.43875
4368.32 1.40809
4371.19 1.37921
4374.05 1.43154
4376.92 1.42441
4379.78 1.53909
4382.64 1.52522
4385.51 1.53226
4388.37 1.50182
4391.24 1.47085
4394.1 1.42482
4396.97 1.34325
4399.83 1.40517
4402.7 1.4359
4405.56 1.52039
4408.43 1.56536
4411.29 1.4881
4414.15 1.45603
4417.02 1.38044
4419.88 1.37495
4422.75 1.40055
4425.61 1.41127
4428.48 1.44034
4431.34 1.53525
4434.21 1.51023
4437.07 1.49747
4439.93 1.48967
4442.8 1.37482
4445.66 1.36893
4448.53 1.39435
4451.39 1.47419
4454.26 1.49047
4457.12 1.57149
4459.99 1.53458
4462.85 1.48392
4465.71 1.47906
4468.58 1.395
4471.44 1.33963
4474.31 1.41
4477.17 1.49354
4480.04 1.55541
4482.9 1.56743
4485.77 1.51258
4488.63 1.43019
4491.49 1.40159
4494.36 1.39848
4497.22 1.42074
4500.09 1.47888
4502.95 1.52464
4505.82 1.54536
4508.68 1.54039
4511.55 1.48059
4514.41 1.41749
4517.27 1.42913
4520.14 1.3896
4523 1.42284
4525.87 1.46053
4528.73 1.60945
4531.6 1.62733
4534.46 1.55753
4537.33 1.47604
4540.19 1.41776
4543.06 1.33107
4545.92 1.42939
4548.78 1.43236
4551.65 1.51316
4554.51 1.59079
4557.38 1.53849
4560.24 1.49893
4563.11 1.49815
4565.97 1.42139
4568.84 1.3402
4571.7 1.36581
4574.56 1.45025
4577.43 1.56276
4580.29 1.54725
4583.16 1.5159
4586.02 1.51139
4588.89 1.42981
4591.75 1.3878
4594.62 1.42485
4597.48 1.47603
4600.34 1.52125
4603.21 1.61377
4606.07 1.59283
4608.94 1.55969
4611.8 1.54552
4614.67 1.44674
4617.53 1.37172
4620.4 1.43503
4623.26 1.5194
4626.12 1.63291
4628.99 1.60768
4631.85 1.5911
4634.72 1.53031
4637.58 1.40789
4640.45 1.41009
4643.31 1.36875
4646.18 1.45452
4649.04 1.58167
4651.91 1.65512
4654.77 1.65247
4657.63 1.63581
4660.5 1.52382
4663.36 1.48062
4666.23 1.3499
4669.09 1.38372
4671.96 1.60187
4674.82 1.69301
4677.69 1.67062
4680.55 1.66963
4683.41 1.47901
4686.28 1.48483
4689.14 1.42688
4692.01 1.37987
4694.87 1.42797
4697.74 1.61098
4700.6 1.72401
4703.47 1.76025
4706.33 1.6436
4709.19 1.50223
4712.06 1.37789
4714.92 1.37927
4717.79 1.38268
4720.65 1.49092
4723.52 1.73449
4726.38 1.78168
4729.25 1.73739
4732.11 1.66548
4734.97 1.57368
4737.84 1.4456
4740.7 1.40378
4743.57 1.39461
4746.43 1.57259
4749.3 1.75313
4752.16 1.81838
4755.03 1.64038
4757.89 1.56782
4760.76 1.40397
4763.62 1.49462
4766.48 1.36964
4769.35 1.49621
4772.21 1.79756
4775.08 1.9633
4777.94 1.82941
4780.81 1.6939
4783.67 1.51873
4786.54 1.43958
4789.4 1.28069
4792.26 1.30372
4795.13 1.5671
4797.99 1.90022
4800.86 1.94705
4803.72 1.84344
4806.59 1.61096
4809.45 1.53139
4812.32 1.30932
4815.18 1.35283
4818.04 1.49725
4820.91 1.56797
4823.77 2.16241
4826.64 2.26061
4829.5 1.84576
4832.37 1.46015
4835.23 1.29521
4838.1 1.04075
4840.96 1.37092
4843.83 1.66473
4846.69 2.08805
4849.55 2.54714
4852.42 2.61177
4855.28 1.80784
4858.15 1.33019
4861.01 1.07822
4863.88 1.24359
4866.74 1.40734
4869.6 1.91688
4872.47 2.2311
4875.33 2.50793
4878.2 2.14845
4881.06 1.99063
4883.93 1.11412
4886.79 0.783006
4889.66 1.49118
4892.52 1.51438
4895.39 2.40826
4898.25 2.91304
4901.11 2.496
4903.98 1.71717
4906.84 1.56129
4909.71 1.11972
4912.57 1.83646
4915.44 1.46047
4918.3 1.52365
4921.17 2.62995
4924.03 2.9498
4926.89 2.62613
4929.76 2.22564
4932.62 1.51499
4935.49 1.1052
4938.35 1.21595
4941.22 0.870952
4944.08 1.77509
4946.95 2.9507
4949.81 3.70181
4952.67 1.31162
4955.54 1.06628
4958.4 0.3059
4961.27 -0.358913
4964.13 0.216371
4967 0.29402
4969.86 3.26821
4972.73 4.42256
4975.59 2.5578
4978.46 1.01244
4981.32 1.5302
4984.18 0.986248
4987.05 -0.397868
4989.91 -0.876177
4992.78 -0.11227
4995.64 1.5621
4998.51 3.8148
5001.37 2.55528
5004.24 1.08131
5007.1 0.523781
5009.96 -0.939386
5012.83 -1.26991
5015.69 0.346017
5018.56 -0.019062
5021.42 -0.799393
5024.29 -0.87026
5027.15 -0.0529375
5030.02 -0.022664
5032.88 -1.62766
5035.75 -1.26593
5038.61 -1.74888
5041.47 -2.59364
5044.34 -2.87268
5047.2 -2.10061
5050.07 -3.06479
5052.93 -2.03185
5055.8 -2.61209
5058.66 -0.949333
5061.52 -2.59078
5064.39 -1.63798
5067.25 -2.49354
5070.12 -0.750792
5072.98 -1.86249
5075.85 -4.15466
5078.71 -3.26754
5081.58 -2.33149
5084.44 -3.65937
5087.31 -4.46161
5090.17 -4.12893
5093.03 -4.089
5095.9 -5.7844
5098.76 -3.35737
5101.63 -1.99367
5104.49 -2.1098
5107.36 -4.36092
5110.22 -2.49609
5113.09 -3.31145
5115.95 -3.3407
5118.81 -4.26493
5121.68 -5.2988
5124.54 -2.41992
5127.41 -2.52612
5130.27 -2.91129
5133.14 -1.56536
5136 -0.629792
5138.87 -2.62506
5141.73 -4.0329
5144.59 -2.75185
5147.46 -3.33094
5150.32 -2.95732
5153.19 -1.45622
5156.05 -0.552333
5158.92 -0.617076
5161.78 -2.10671
5164.65 -2.12202
5167.51 -2.44926
5170.38 -4.4128
5173.24 -3.30901
5176.1 -2.65293
5178.97 -1.60889
5181.83 2.06558
5184.7 -0.161614
5187.56 -1.89714
5190.43 -2.29055
5193.29 -3.04795
5196.16 -2.91267
5199.02 -2.84854
5201.88 -1.44359
5204.75 0.228251
5207.61 2.36691
5210.48 -0.256419
5213.34 -2.43845
5216.21 -2.75026
5219.07 -1.77044
5221.94 -1.75614
5224.8 -0.0856793
5227.66 1.29496
5230.53 1.48135
5233.39 3.46791
5236.26 -0.249929
5239.12 -1.43318
5241.99 -2.14029
5244.85 -2.82679
5247.72 -3.39418
5250.58 -0.451906
5253.44 1.95777
5256.31 2.30213
5259.17 -0.21475
5262.04 -2.45812
5264.9 -3.07772
5267.77 -2.15187
5270.63 -0.981452
5273.5 -0.404981
5276.36 -0.528606
5279.23 1.86288
5282.09 2.84872
5284.95 -1.10534
5287.82 -0.67439
5290.68 -0.38566
5293.55 -1.89412
5296.41 -1.14562
5299.28 -0.917583
5302.14 0.0693431
5305.01 1.66569
5307.87 0.279303
5310.73 -0.977286
5313.6 -1.63678
5316.46 -1.31764
5319.33 -0.534
5322.19 0.0451264
5325.06 1.18422
5327.92 2.14346
5330.79 3.43858
5333.65 2.03394
5336.51 -0.471164
5339.38 -1.44319
5342.24 -0.512056
5345.11 -1.01911
5347.97 -1.11589
5350.84 0.484958
5353.7 1.20338
5356.57 1.36593
5359.43 1.85279
5362.29 -0.540286
5365.16 -1.25044
5368.02 -0.85461
5370.89 0.167572
5373.75 -0.396066
5376.62 -0.157567
5379.48 0.358756
5382.35 2.03957
5385.21 0.529058
5388.08 -0.73529
5390.94 -0.386164
5393.8 0.903488
5396.67 1.28698
5399.53 0.873521
5402.4 1.94386
5405.26 1.94293
5408.13 0.944646
5410.99 0.156661
5413.86 -1.18365
5416.72 -0.139659
5419.58 -0.368174
5422.45 -0.803296
5425.31 1.49157
5428.18 1.87105
5431.04 2.75634
5433.91 -0.805227
5436.77 0.290626
5439.64 -1.56921
5442.5 -1.2798
5445.36 -1.14943
5448.23 -0.9391
5451.09 0.569592
5453.96 1.36303
5456.82 -0.715169
5459.69 0.405295
5462.55 -0.324298
5465.42 -2.25951
5468.28 -2.26677
5471.15 -1.8554
5474.01 -1.11986
5476.87 1.70054
5479.74 2.14995
5482.6 0.230108
5485.47 -1.41801
5488.33 -1.50663
5491.2 -2.57006
5494.06 -1.66668
5496.92 -0.787006
5499.79 1.25782
5502.65 2.60365
5505.52 2.3313
5508.38 -2.10495
5511.25 -2.63142
5514.11 -3.74467
5516.98 -2.491
5519.84 -1.2586
5522.71 -0.0664473
5525.57 1.37591
5528.43 0.384639
5531.3 0.0141667
5534.16 0.373184
5537.03 -0.404688
5539.89 -0.699478
5542.76 -2.087
5545.62 -0.955854
5548.49 -3.01126
5551.35 -1.89953
5554.21 0.453983
5557.08 -0.11753
5559.94 -1.34591
5562.81 -0.984207
5565.67 -1.84515
5568.54 -2.35327
5571.4 -2.65757
5574.27 -0.621843
5577.13 2.02011
5579.99 2.88
5582.86 0.778868
5585.72 -0.656734
5588.59 -3.68887
5591.45 -3.56664
5594.32 -2.23458
5597.18 -0.93261
5600.05 0.912847
5602.91 1.52294
5605.78 -0.226318
5608.64 -1.29431
5611.5 -0.938681
5614.37 -0.0399411
5617.23 -1.67602
5620.1 -0.879334
5622.96 0.547895
5625.83 3.02355
5628.69 4.06763
5631.56 0.291781
5634.42 -1.07611
5637.28 -2.23372
5640.15 -2.11219
5643.01 -1.90554
5645.88 1.18651
5648.74 2.12298
5651.61 3.43434
5654.47 2.19782
5657.34 -1.36675
5660.2 -2.05722
5663.06 -2.18792
5665.93 -1.90039
5668.79 -2.25565
5671.66 0.192499
5674.52 0.711324
5677.39 0.763965
5680.25 1.68572
5683.12 0.983124
5685.98 -2.17264
5688.84 -2.51068
5691.71 -0.748897
5694.57 -0.610957
5697.44 -0.756381
5700.3 -0.38846
5703.17 -0.751047
5706.03 -0.302046
5708.9 -1.29936
5711.76 -0.617792
5714.62 -1.26066
5717.49 0.875229
5720.35 -0.20651
5723.22 0.914632
5726.08 0.932341
5728.95 0.0621241
5731.81 -0.654999
5734.68 -0.48985
5737.54 -0.538851
5740.41 -0.553592
5743.27 -0.408752
5746.13 -3.12161
5749 0.00644988
5751.86 0.327894
5754.73 -1.46829
5757.59 -1.18293
5760.46 -1.75445
5763.32 -1.95863
5766.19 -0.857859
5769.05 -0.31699
5771.91 0.388549
5774.78 1.57144
5777.64 -0.199958
5780.51 -1.18081
5783.37 -1.65394
5786.24 -3.72151
5789.1 -2.92434
5791.97 -1.31502
5794.83 0.827945
5797.69 2.36487
5800.56 2.19006
5803.42 0.0746858
5806.29 -1.39279
5809.15 -2.11892
5812.02 -1.65729
5814.88 -1.26995
5817.75 0.991005
5820.61 -0.29227
5823.48 0.368624
5826.34 -0.209467
5829.2 -0.691582
5832.07 -0.570712
5834.93 -2.22765
5837.8 -1.88895
5840.66 -1.75588
5843.53 -3.17574
5846.39 -1.19635
5849.26 0.557276
5852.12 0.777757
5854.98 -1.04393
5857.85 -2.59927
5860.71 -2.66189
5863.58 -2.03321
spectrumdark 2048
0 2831.62
2.8709 2100.81
5.74181 686.893
8.61271 706.279
11.4836 551.422
14.3545 908.489
17.2254 926.296
20.0963 1023.24
22.9672 1271.95
25.8381 1487.7
28.709 1384.88
31.5799 1625.14
34.4509 1415.13
37.3218 1331.4
40.1927 1268.5
43.0636 1801.34
45.9345 2352.76
48.8054 2086.8
51.6763 2023.72
54.5472 2365.51
57.4181 2879.12
60.289 3452.04
63.1599 2785.27
66.0308 2966.13
68.9017 3055.38
71.7726 2857.62
74.6435 2995.66
77.5144 2848.28
80.3853 2287.01
83.2562 3144.14
86.1271 3113.7
88.998 2927.88
91.8689 2525.07
94.7398 2208.05
97.6107 2295.63
100.482 2575.73
103.353 2332.64
106.223 2984.03
109.094 4246.56
111.965 4155.08
114.836 4083.71
117.707 2628.24
120.578 3230.6
123.449 3353.4
126.32 3378.17
129.191 3100.05
132.062 2935.15
134.932 3488.7
137.803 2378.68
140.674 2945.94
143.545 2771.58
146.416 3488.54
149.287 2790.91
152.158 3801.82
155.029 3572.26
157.9 3130.86
160.771 2744.66
163.642 2763.81
166.512 2459.58
169.383 2476.73
172.254 2685.35
175.125 1815.18
177.996 1910.42
180.867 2439.36
183.738 2186.62
186.609 2225.93
189.48 2827.94
192.351 3016.47
195.221 2764.8
198.092 2820.99
200.963 2583.43
203.834 2922.41
206.705 2804.39
209.576 3197.4
212.447 3069.94
215.318 2635.73
218.189 2812.28
221.06 3027.01
223.931 2561.68
226.801 2548.78
229.672 1766.37
232.543 2221.44
235.414 1996.89
238.285 2160.65
241.156 2618.21
244.027 2609.81
246.898 2964.53
249.769 2982.68
252.64 3228.48
255.51 3021.51
258.381 2566.9
261.252 2131.75
264.123 2301.86
266.994 2808.28
269.865 2749.26
272.736 3150.77
275.607 2427.44
278.478 2142.47
281.349 2405.49
284.22 2115.83
287.09 2670.36
289.961 2697.3
292.832 2049.67
295.703 2369.39
298.574 2976.97
301.445 2660.64
304.316 2416.82
307.187 1893.98
310.058 1994.89
312.929 1694.31
315.799 1680.26
318.67 1858.37
321.541 1941.65
324.412 2376.6
327.283 2171.6
330.154 2115.23
333.025 2047.02
335.896 1681.54
338.767 2605
341.638 2371.43
344.509 1725.75
347.379 1733.61
350.25 1518.87
353.121 1756.03
355.992 1885.45
358.863 1507.9
361.734 1919.18
364.605 1841.37
367.476 1662.85
370.347 1096.68
373.218 1174.07
376.088 1827.54
378.959 2004.31
381.83 2145.76
384.701 1807.15
387.572 2017.23
390.443 1972.15
393.314 2027.78
396.185 1687.65
399.056 1716.39
401.927 1319.53
404.798 1857.09
407.668 2214.36
410.539 1335.05
413.41 1309.8
416.281 1815.35
419.152 1360.13
422.023 1784.09
424.894 2008.51
427.765 1776.55
430.636 2134.85
433.507 2242.93
436.378 2522.87
439.248 2030.57
442.119 1661.32
444.99 1538.1
447.861 1602.47
450.732 1887.42
453.603 1463.08
456.474 1797.15
459.345 1905.36
462.216 1713.47
465.087 1457.95
467.957 1482.32
470.828 1400.15
473.699 1931.53
476.57 1849.75
479.441 1341.27
482.312 1601.93
485.183 2241.95
488.054 2065.26
490.925 2229.26
493.796 1572.22
496.666 1684.95
499.537 1451.59
502.408 1720.08
505.279 1215.07
508.15 1535.42
511.021 1388.34
513.892 1708.17
516.763 2140.83
519.634 1833.71
522.505 1528.18
525.376 1488.22
528.246 1807.29
531.117 1978.97
533.988 1752.38
536.859 1492.87
539.73 1164.19
542.601 1402.93
545.472 1509.68
548.343 1489.58
551.214 1589.18
554.085 1809.2
556.955 1577.44
559.826 1661.48
562.697 1511.02
565.568 1879.84
568.439 1772.18
571.31 1605.95
574.181 1831.4
577.052 1869.48
579.923 1940.61
582.794 1854.4
585.664 2339
588.535 2703.1
591.406 2737.46
594.277 3719.73
597.148 4127.45
600.019 4920.75
602.89 5007.09
605.761 5398.45
608.632 5895.95
611.503 7250.24
614.374 7790.57
617.244 8541.26
620.115 9642.43
622.986 10887.1
625.857 12870.3
628.728 14751.3
631.599 16577.4
634.47 18259.1
637.341 20934.9
640.212 21529.3
643.083 23963.8
645.953 25931
648.824 28628.4
651.695 30416.2
654.566 32768
657.437 34920.4
660.308 36474.8
663.179 39101.9
666.05 40054.4
668.921 35508.5
671.792 45749.4
674.663 48614.1
677.533 50735
680.404 52887.9
683.275 55147.1
686.146 57433.4
689.017 60299.1
691.888 62706.3
694.759 65607.8
697.63 68181
700.501 70984.3
703.372 74311.8
706.242 76186.3
709.113 79379.3
711.984 82407.9
714.855 85289.2
717.726 88058.3
720.597 90837.4
723.468 93514.6
726.339 96658.9
729.21 100528
732.081 103991
734.952 107695
737.822 110903
740.693 114584
743.564 117986
746.435 122006
749.306 125421
752.177 129167
755.048 132826
757.919 136813
760.79 141015
763.661 144841
766.531 148715
769.402 153117
772.273 157752
775.144 161981
778.015 166422
780.886 169950
783.757 173510
786.628 177593
789.499 180427
792.37 184298
795.24 187072
798.111 190621
800.982 195468
803.853 200100
806.724 205544
809.595 211069
812.466 215508
815.337 220702
818.208 224888
821.079 229673
823.95 235007
826.82 239753
829.691 244353
832.562 248884
835.433 253154
838.304 257767
841.175 261972
844.046 266187
846.917 269902
849.788 273364
852.659 278303
855.53 281889
858.4 286606
861.271 290573
864.142 294205
867.013 298350
869.884 302120
872.755 306684
875.626 310644
878.497 314495
881.368 319163
884.239 323795
887.109 328248
889.98 333566
892.851 338303
895.722 343246
898.593 348850
901.464 353334
904.335 358966
907.206 364079
910.077 369193
912.948 374858
915.819 380336
918.689 386279
921.56 391638
924.431 397713
927.302 403769
930.173 409860
933.044 416881
935.915 423432
938.786 429833
941.657 437184
944.528 444373
947.398 452611
950.269 461468
953.14 469806
956.011 479391
958.882 488943
961.753 498996
964.624 510798
967.495 521803
970.366 533595
973.237 546135
976.107 558102
978.978 571592
981.849 583473
984.72 595202
987.591 606403
990.462 616199
993.333 624568
996.204 631744
999.075 636497
1001.95 638460
1004.82 638277
1007.69 636117
1010.56 630717
1013.43 623543
1016.3 615911
1019.17 607067
1022.04 598203
1024.91 588801
1027.78 577934
1030.65 567404
1033.53 555484
1036.4 543482
1039.27 531963
1042.14 519320
1045.01 506640
1047.88 493731
1050.75 481391
1053.62 469169
1056.49 456488
1059.36 443854
1062.23 431550
1065.11 419007
1067.98 406104
1070.85 394186
1073.72 383013
1076.59 371239
1079.46 360977
1082.33 351188
1085.2 343064
1088.07 335397
1090.94 329075
1093.81 324296
1096.69 319949
1099.56 316313
1102.43 313425
1105.3 311158
1108.17 309699
1111.04 308367
1113.91 307525
1116.78 306817
1119.65 306733
1122.52 306931
1125.39 306371
1128.27 306670
1131.14 306504
1134.01 306560
1136.88 306793
1139.75 306034
1142.62 305996
1145.49 305625
1148.36 304292
1151.23 303547
1154.1 302682
1156.97 300919
1159.85 299504
1162.72 298087
1165.59 296133
1168.46 294002
1171.33 291579
1174.2 289208
1177.07 286276
1179.94 283708
1182.81 280581
1185.68 277425
1188.55 274465
1191.43 271294
1194.3 268705
1197.17 265611
1200.04 263009
1202.91 260728
1205.78 258806
1208.65 256815
1211.52 255601
1214.39 254369
1217.26 254612
1220.13 254980
1223.01 255699
1225.88 257235
1228.75 259839
1231.62 263605
1234.49 267808
1237.36 272477
1240.23 278398
1243.1 284112
1245.97 289459
1248.84 295526
1251.71 300328
1254.59 303643
1257.46 305680
1260.33 306149
1263.2 305347
1266.07 306709
1268.94 308074
1271.81 308672
1274.68 308778
1277.55 309656
1280.42 309307
1283.29 309219
1286.17 308906
1289.04 307810
1291.91 307029
1294.78 306969
1297.65 305795
1300.52 305332
1303.39 304578
1306.26 303883
1309.13 302927
1312 301617
1314.87 299729
1317.75 298597
1320.62 296888
1323.49 297991
1326.36 298441
1329.23 297620
1332.1 296846
1334.97 295534
1337.84 292476
1340.71 286150
1343.58 288074
1346.45 293502
1349.33 292758
1352.2 291785
1355.07 290913
1357.94 289443
1360.81 286953
1363.68 278878
1366.55 279386
1369.42 285633
1372.29 283278
1375.16 278690
1378.03 277104
1380.91 283177
1383.78 283419
1386.65 281354
1389.52 269811
1392.39 276479
1395.26 271810
1398.13 261448
1401 266010
1403.87 274021
1406.74 272381
1409.61 275656
1412.48 276916
1415.36 274575
1418.23 266777
1421.1 244224
1423.97 260150
1426.84 267171
1429.71 271613
1432.58 264644
1435.45 265726
1438.32 245581
1441.19 256766
1444.06 271375
1446.94 269884
1449.81 260168
1452.68 262306
1455.55 256601
1458.42 223787
1461.29 227308
1464.16 260964
1467.03 250099
1469.9 258445
1472.77 252305
1475.64 227476
1478.52 248706
1481.39 264037
1484.26 265148
1487.13 264371
1490 248696
1492.87 239154
1495.74 254820
1498.61 237711
1501.48 241508
1504.35 250205
1507.22 226147
1510.1 194089
1512.97 236150
1515.84 241289
1518.71 230050
1521.58 222758
1524.45 206094
1527.32 229953
1530.19 236133
1533.06 245783
1535.93 228186
1538.8 232137
1541.68 195097
1544.55 196408
1547.42 224319
1550.29 243810
1553.16 238259
1556.03 228874
1558.9 208182
1561.77 171618
1564.64 226566
1567.51 240577
1570.38 238852
1573.26 227002
1576.13 240415
1579 213769
1581.87 242447
1584.74 247627
1587.61 247883
1590.48 246262
1593.35 243296
1596.22 240713
1599.09 238136
1601.96 236280
1604.84 231369
1607.71 227433
1610.58 221866
1613.45 216032
1616.32 209913
1619.19 185671
1622.06 197421
1624.93 196249
1627.8 194565
1630.67 199423
1633.54 202925
1636.42 194540
1639.29 179043
1642.16 208983
1645.03 212221
1647.9 198683
1650.77 185846
1653.64 194386
1656.51 162393
1659.38 219989
1662.25 228922
1665.12 220817
1668 226556
1670.87 219880
1673.74 210098
1676.61 219881
1679.48 216334
1682.35 226022
1685.22 210635
1688.09 190421
1690.96 228538
1693.83 227629
1696.7 221893
1699.58 190129
1702.45 188932
1705.32 204511
1708.19 219000
1711.06 228252
1713.93 230141
1716.8 217234
1719.67 198263
1722.54 211417
1725.41 233017
1728.28 232095
1731.16 228165
1734.03 215796
1736.9 190561
1739.77 214491
1742.64 214908
1745.51 221781
1748.38 221865
1751.25 215931
1754.12 209958
1756.99 225735
1759.86 222372
1762.74 226139
1765.61 218718
1768.48 227725
1771.35 214135
1774.22 208056
1777.09 208720
1779.96 223470
1782.83 221379
1785.7 220768
1788.57 218699
1791.44 219732
1794.32 207986
1797.19 207526
1800.06 215793
1802.93 211791
1805.8 212178
1808.67 215477
1811.54 213036
1814.41 208483
1817.28 208166
1820.15 202078
1823.02 196228
1825.9 192226
1828.77 184037
1831.64 183942
1834.51 181542
1837.38 186872
1840.25 183772
1843.12 179568
1845.99 172931
1848.86 168368
1851.73 175248
1854.6 175587
1857.48 173856
1860.35 172099
1863.22 169962
1866.09 167381
1868.96 163121
1871.83 157693
1874.7 160422
1877.57 162074
1880.44 160508
1883.31 158701
1886.18 156918
1889.06 154293
1891.93 151390
1894.8 149717
1897.67 149257
1900.54 148188
1903.41 146957
1906.28 144874
1909.15 142727
1912.02 140326
1914.89 138703
1917.76 136499
1920.64 133135
1923.51 132207
1926.38 131123
1929.25 129712
1932.12 127392
1934.99 124799
1937.86 122388
1940.73 119045
1943.6 116048
1946.47 112845
1949.34 112176
1952.21 110354
1955.09 108286
1957.96 106245
1960.83 103448
1963.7 100129
1966.57 97522.8
1969.44 95677.5
1972.31 93810
1975.18 92382.2
1978.05 90838.6
1980.92 89182
1983.79 90859.3
1986.67 93765.8
1989.54 95462.2
1992.41 96094.4
1995.28 97201.4
1998.15 98157.2
2001.02 98442.5
2003.89 97748.7
2006.76 96353.5
2009.63 93885
2012.5 92325.4
2015.37 91610.2
2018.25 91007.7
2021.12 90732.5
2023.99 90404.5
2026.86 90090.9
2029.73 89626.8
2032.6 89443.2
2035.47 89162.6
2038.34 89408.5
2041.21 91233.8
2044.08 93132.6
2046.95 95031.7
2049.83 96739.1
2052.7 99153.4
2055.57 104388
2058.44 107668
2061.31 109939
2064.18 111409
2067.05 112961
2069.92 114348
2072.79 116144
2075.66 117710
2078.53 119503
2081.41 121551
2084.28 124013
2087.15 125749
2090.02 127249
2092.89 128374
2095.76 128156
2098.63 127317
2101.5 126579
2104.37 127088
2107.24 127564
2110.11 128363
2112.99 129009
2115.86 129678
2118.73 130771
2121.6 131042
2124.47 130072
2127.34 128647
2130.21 126127
2133.08 122758
2135.95 117798
2138.82 111979
2141.69 107732
2144.57 104365
2147.44 101102
2150.31 98123.1
2153.18 95348.1
2156.05 92343.7
2158.92 88672.4
2161.79 83716.5
2164.66 81230.2
2167.53 83667.8
2170.4 85966.9
2173.27 88368
2176.15 89741
2179.02 90061.2
2181.89 90699.4
2184.76 90734.1
2187.63 90938.2
2190.5 92420.8
2193.37 93863.1
2196.24 95187.2
2199.11 96447.5
2201.98 97552.7
2204.85 98448.2
2207.73 99471.4
2210.6 100149
2213.47 100890
2216.34 101787
2219.21 102758
2222.08 103820
2224.95 104841
2227.82 105709
2230.69 106763
2233.56 108139
2236.43 109574
2239.31 111046
2242.18 112581
2245.05 113897
2247.92 115328
2250.79 116813
2253.66 118173
2256.53 119298
2259.4 120162
2262.27 122319
2265.14 124414
2268.01 126468
2270.89 128264
2273.76 130743
2276.63 133678
2279.5 136535
2282.37 140108
2285.24 144278
2288.11 149236
2290.98 154465
2293.85 159858
2296.72 164694
2299.59 168472
2302.47 171361
2305.34 173783
2308.21 175160
2311.08 175686
2313.95 175596
2316.82 174688
2319.69 173369
2322.56 172143
2325.43 171595
2328.3 175510
2331.17 179508
2334.05 175711
2336.92 172317
2339.79 170558
2342.66 169506
2345.53 170992
2348.4 177314
2351.27 188229
2354.14 194523
2357.01 174959
2359.88 156662
2362.75 145671
2365.63 140974
2368.5 141324
2371.37 146373
2374.24 154621
2377.11 165622
2379.98 177263
2382.85 187054
2385.72 193135
2388.59 195380
2391.46 194555
2394.33 192412
2397.21 189708
2400.08 186900
2402.95 183978
2405.82 180943
2408.69 178335
2411.56 175597
2414.43 173717
2417.3 172060
2420.17 170442
2423.04 168850
2425.91 167492
2428.79 165723
2431.66 164309
2434.53 162930
2437.4 162060
2440.27 161155
2443.14 160233
2446.01 159119
2448.88 158576
2451.75 158209
2454.62 157833
2457.49 157915
2460.36 157854
2463.24 157682
2466.11 157469
2468.98 156957
2471.85 156305
2474.72 155349
2477.59 154439
2480.46 153590
2483.33 152897
2486.2 152157
2489.07 151433
2491.95 150978
2494.82 149964
2497.69 149590
2500.56 149086
2503.43 148475
2506.3 148244
2509.17 147533
2512.04 147020
2514.91 146368
2517.78 145691
2520.65 145505
2523.53 145066
2526.4 144603
2529.27 144200
2532.14 143709
2535.01 143711
2537.88 143294
2540.75 143001
2543.62 142865
2546.49 142759
2549.36 142628
2552.23 142843
2555.1 142840
2557.98 142881
2560.85 143080
2563.72 143221
2566.59 143481
2569.46 143753
2572.33 144436
2575.2 145071
2578.07 145471
2580.94 146201
2583.81 146790
2586.68 147659
2589.56 148549
2592.43 149402
2595.3 150712
2598.17 152119
2601.04 153114
2603.91 154594
2606.78 156289
2609.65 158038
2612.52 159636
2615.39 161718
2618.26 164000
2621.14 166266
2624.01 168596
2626.88 171451
2629.75 174007
2632.62 176713
2635.49 179620
2638.36 183133
2641.23 186585
2644.1 190190
2646.97 193530
2649.84 197244
2652.72 201124
2655.59 204851
2658.46 208436
2661.33 211647
2664.2 214623
2667.07 216769
2669.94 217692
2672.81 217596
2675.68 217075
2678.55 216546
2681.42 215966
2684.3 215272
2687.17 214715
2690.04 213845
2692.91 213067
2695.78 212198
2698.65 211719
2701.52 211095
2704.39 210059
2707.26 209366
2710.13 208724
2713 207988
2715.88 207424
2718.75 206611
2721.62 205950
2724.49 205380
2727.36 204565
2730.23 203759
2733.1 203341
2735.97 202641
2738.84 202038
2741.71 201303
2744.58 200489
2747.46 199839
2750.33 199225
2753.2 198606
2756.07 198050
2758.94 197318
2761.81 196667
2764.68 196044
2767.55 195484
2770.42 194867
2773.29 194154
2776.16 193559
2779.04 192928
2781.91 192324
2784.78 191582
2787.65 190966
2790.52 190232
2793.39 189633
2796.26 189269
2799.13 188498
2802 187810
2804.87 187306
2807.74 186563
2810.62 186062
2813.49 185314
2816.36 184500
2819.23 184062
2822.1 183567
2824.97 183092
2827.84 182416
2830.71 181680
2833.58 180851
2836.45 180389
2839.32 179594
2842.2 178815
2845.07 178368
2847.94 177541
2850.81 176483
2853.68 175465
2856.55 174660
2859.42 173755
2862.29 173126
2865.16 172536
2868.03 172329
2870.9 171675
2873.78 171137
2876.65 170341
2879.52 169919
2882.39 169594
2885.26 168814
2888.13 168043
2891 167448
2893.87 167063
2896.74 166385
2899.61 165636
2902.48 165006
2905.36 164147
2908.23 163225
2911.1 162527
2913.97 161874
2916.84 161085
2919.71 160262
2922.58 159385
2925.45 158426
2928.32 157665
2931.19 156799
2934.06 156349
2936.94 156004
2939.81 155436
2942.68 154954
2945.55 154854
2948.42 154424
2951.29 153973
2954.16 153658
2957.03 153052
2959.9 152501
2962.77 151770
2965.64 151213
2968.52 150487
2971.39 150201
2974.26 149897
2977.13 149791
2980 149591
2982.87 149330
2985.74 148992
2988.61 148817
2991.48 148725
2994.35 148184
2997.22 147541
3000.1 147228
3002.97 146831
3005.84 146619
3008.71 146088
3011.58 145478
3014.45 144991
3017.32 144320
3020.19 144014
3023.06 143569
3025.93 143173
3028.8 142783
3031.68 142297
3034.55 141628
3037.42 140759
3040.29 140616
3043.16 140169
3046.03 139456
3048.9 139253
3051.77 138704
3054.64 138026
3057.51 137710
3060.38 137230
3063.26 136598
3066.13 136178
3069 135489
3071.87 134836
3074.74 134510
3077.61 134243
3080.48 133684
3083.35 132807
3086.22 132354
3089.09 132084
3091.96 131555
3094.83 130993
3097.71 130569
3100.58 129818
3103.45 129276
3106.32 128825
3109.19 128371
3112.06 127871
3114.93 127274
3117.8 126661
3120.67 125805
3123.54 125385
3126.41 125095
3129.29 124830
3132.16 124165
3135.03 123582
3137.9 123115
3140.77 122568
3143.64 122002
3146.51 121632
3149.38 121106
3152.25 120646
3155.12 120005
3157.99 119293
3160.87 119077
3163.74 118632
3166.61 117926
3169.48 117234
3172.35 116820
3175.22 116373
3178.09 115965
3180.96 115100
3183.83 114550
3186.7 114004
3189.57 113471
3192.45 113130
3195.32 112499
3198.19 112069
3201.06 111497
3203.93 111075
3206.8 110784
3209.67 110385
3212.54 109842
3215.41 109160
3218.28 108734
3221.15 108302
3224.03 107943
3226.9 107479
3229.77 107336
3232.64 107001
3235.51 106658
3238.38 106216
3241.25 106058
3244.12 105998
3246.99 105595
3249.86 105045
3252.73 104826
3255.61 104849
3258.48 104418
3261.35 103982
3264.22 104126
3267.09 103696
3269.96 103267
3272.83 103000
3275.7 102834
3278.57 102611
3281.44 102119
3284.31 102206
3287.19 101944
3290.06 101529
3292.93 101010
3295.8 100602
3298.67 100227
3301.54 99996.3
3304.41 99548
3307.28 99315.4
3310.15 98757.8
3313.02 98421.2
3315.89 98090.9
3318.77 97793.1
3321.64 97425.9
3324.51 96935.9
3327.38 96411.9
3330.25 95781.7
3333.12 95280.1
3335.99 94910.8
3338.86 94369.3
3341.73 93794.8
3344.6 93295.3
3347.47 92954.4
3350.35 92599.4
3353.22 92069.4
3356.09 91340.2
3358.96 90888.8
3361.83 90280.9
3364.7 89637.4
3367.57 89128
3370.44 88516.3
3373.31 87915.6
3376.18 87531.3
3379.05 87257.2
3381.93 86638.6
3384.8 86027.9
3387.67 85526
3390.54 84989.3
3393.41 84393.6
3396.28 83743.1
3399.15 82933.7
3402.02 82575.4
3404.89 82000.2
3407.76 81600.1
3410.63 81106.8
3413.51 80476.3
3416.38 80009
3419.25 79384.7
3422.12 79184.5
3424.99 78606.9
3427.86 77683.7
3430.73 77311
3433.6 76781
3436.47 76154.4
3439.34 75797.2
3442.21 75363.9
3445.09 74867.6
3447.96 74273.7
3450.83 73774.4
3453.7 72760.5
3456.57 72952.6
3459.44 72638.1
3462.31 72012
3465.18 71585.9
3468.05 71023
3470.92 70383.1
3473.79 69957.2
3476.67 69853.4
3479.54 69393.9
3482.41 68855.3
3485.28 68508.4
3488.15 67587.2
3491.02 67571.8
3493.89 67098.3
3496.76 66758.8
3499.63 66651.2
3502.5 66013.8
3505.37 65789
3508.25 64871.4
3511.12 64431.5
3513.99 64751.3
3516.86 64214.6
3519.73 64387
3522.6 64411.7
3525.47 63745.4
3528.34 63034
3531.21 62614.2
3534.08 62374.6
3536.95 62603.2
3539.83 63019.9
3542.7 62537.2
3545.57 62795.9
3548.44 62581.4
3551.31 61222.9
3554.18 60947.7
3557.05 61953.8
3559.92 61421.6
3562.79 62275.9
3565.66 61961.8
3568.53 61622
3571.41 60325.1
3574.28 57529.4
3577.15 61270.3
3580.02 62522.8
3582.89 62644.3
3585.76 62495.8
3588.63 62575.8
3591.5 61646.5
3594.37 57912.3
3597.24 61320.3
3600.11 62051.2
3602.98 61996.6
3605.86 62923.3
3608.73 63460.2
3611.6 64375
3614.47 61357
3617.34 61201.8
3620.21 61641.3
3623.08 63338.4
3625.95 60446.1
3628.82 64054.3
3631.69 66475.6
3634.56 59937.5
3637.44 60064.7
3640.31 66469
3643.18 68007.1
3646.05 68417.3
3648.92 68234.8
3651.79 67392.8
3654.66 59857.7
3657.53 58179
3660.4 66484.3
3663.27 64250.3
3666.15 68290.8
3669.02 68994.5
3671.89 69145
3674.76 65117.8
3677.63 59007.4
3680.5 61275.1
3683.37 57149.1
3686.24 65081.6
3689.11 67341
3691.98 67654.3
3694.85 60633.6
3697.72 60894.4
3700.6 66174.4
3703.47 67805.6
3706.34 67336.4
3709.21 64526.3
3712.08 67211.3
3714.95 65546.5
3717.82 60231.5
3720.69 62277.8
3723.56 66734.7
3726.43 65821.7
3729.3 63991.5
3732.18 62925.5
3735.05 63750.1
3737.92 62310
3740.79 57637.4
3743.66 55778.6
3746.53 62033.8
3749.4 59751.6
3752.27 51728
3755.14 57464.7
3758.01 52804.2
3760.88 59945
3763.76 64598.3
3766.63 63416.2
3769.5 66332.7
3772.37 65051.3
3775.24 64639.4
3778.11 64060.1
3780.98 67528.4
3783.85 67298.6
3786.72 64743.6
3789.59 66877.2
3792.46 66389.5
3795.34 67052
3798.21 67134.1
3801.08 66198.9
3803.95 63208.1
3806.82 61088.2
3809.69 57604.8
3812.56 61512.1
3815.43 60508.2
3818.3 65336.9
3821.17 62622.9
3824.04 57643.7
3826.92 58548.2
3829.79 57659.6
3832.66 62618.8
3835.53 62777
3838.4 61261.7
3841.27 60003.1
3844.14 55812
3847.01 56195.9
3849.88 59139.2
3852.75 61234.3
3855.62 62596.7
3858.5 56018.3
3861.37 46215.6
3864.24 57646
3867.11 60597
3869.98 58250
3872.85 57190.1
3875.72 56700.5
3878.59 55274.2
3881.46 57860.7
3884.33 60444.9
3887.2 57176.5
3890.08 57958.6
3892.95 55021.6
3895.82 58613.2
3898.69 56078.3
3901.56 58746
3904.43 58476.8
3907.3 54349.2
3910.17 52851.5
3913.04 55304.8
3915.91 59028.7
3918.78 59440.1
3921.66 58810.3
3924.53 56163.8
3927.4 56623.7
3930.27 57140.4
3933.14 56642.2
3936.01 57163.8
3938.88 55592.4
3941.75 56085.7
3944.62 57182.8
3947.49 56629.9
3950.36 55506.4
3953.24 55854.4
3956.11 55106.8
3958.98 55485.2
3961.85 55655.1
3964.72 55467.1
3967.59 55135.4
3970.46 54809.5
3973.33 54953.6
3976.2 54621.5
3979.07 54366.1
3981.94 53978.5
3984.82 53906.6
3987.69 53696.8
3990.56 53415.2
3993.43 53313.5
3996.3 53019.1
3999.17 52680.4
4002.04 52517.1
4004.91 52235.8
4007.78 52260.6
4010.65 52038.7
4013.52 51697
4016.4 51334.7
4019.27 51359.3
4022.14 51118.4
4025.01 50731.6
4027.88 50618
4030.75 50440.7
4033.62 50205
4036.49 49972.4
4039.36 49989.6
4042.23 49697.7
4045.1 49458
4047.98 49376.3
4050.85 48985.9
4053.72 48728.6
4056.59 48618.4
4059.46 48534.4
4062.33 48366.7
4065.2 48166.7
4068.07 48035.5
4070.94 47677.8
4073.81 47509
4076.68 47350.8
4079.56 47272.7
4082.43 47289
4085.3 46918.1
4088.17 46605.2
4091.04 46730.9
4093.91 46409.6
4096.78 46416.8
4099.65 46191.1
4102.52 46029.1
4105.39 45901.2
4108.26 45753.9
4111.14 45587.4
4114.01 45485.3
4116.88 45435.5
4119.75 45317
4122.62 45100.6
4125.49 44991.6
4128.36 44809.2
4131.23 44677.6
4134.1 44517
4136.97 44447.8
4139.84 44389.2
4142.72 44294.4
4145.59 43998.3
4148.46 43987
4151.33 43901.9
4154.2 43842.1
4157.07 43609.9
4159.94 43490.1
4162.81 43414.4
4165.68 43330.9
4168.55 43432.5
4171.42 43198.6
4174.3 43103.9
4177.17 43082.4
4180.04 42934.3
4182.91 42817.9
4185.78 42709.8
4188.65 42654.3
4191.52 42737.7
4194.39 42449.8
4197.26 42405.4
4200.13 42354.4
4203 42289.2
4205.87 42392.2
4208.75 42316.6
4211.62 42158.3
4214.49 41959.5
4217.36 42067.6
4220.23 42042.3
4223.1 41780.3
4225.97 41899.2
4228.84 41859.9
4231.71 41706.5
4234.58 41699.1
4237.45 41825.2
4240.33 41763.2
4243.2 41702.6
4246.07 41600.8
4248.94 41620.6
4251.81 41564.1
4254.68 41502.1
4257.55 41544.6
4260.42 41445
4263.29 41457.8
4266.16 41345.9
4269.03 41316.7
4271.91 41382.7
4274.78 41339.6
4277.65 41258.6
4280.52 41239.6
4283.39 41250.7
4286.26 41227
4289.13 41211.8
4292 41124.9
4294.87 41109.7
4297.74 41207
4300.61 41097.4
4303.49 41005.9
4306.36 40919.4
4309.23 40901.5
4312.1 41023.2
4314.97 40930.1
4317.84 41013.7
4320.71 40941.2
4323.58 40863.9
4326.45 40856.6
4329.32 40748.8
4332.19 40701.8
4335.07 40691.3
4337.94 40723.2
4340.81 40702.5
4343.68 40584.9
4346.55 40555.7
4349.42 40734.7
4352.29 40444
4355.16 40441.2
4358.03 40502.7
4360.9 40590.4
4363.77 40527.3
4366.65 40447.3
4369.52 40358
4372.39 40162.7
4375.26 40280.3
4378.13 40337.1
4381 40273.7
4383.87 40206.6
4386.74 40115.7
4389.61 40164.7
4392.48 39949.2
4395.35 39907.3
4398.23 39941.3
4401.1 39886.3
4403.97 39824
4406.84 39577.5
4409.71 39624.7
4412.58 39587
4415.45 39496.7
4418.32 39477.9
4421.19 39311.1
4424.06 39336.5
4426.93 39141.7
4429.81 39200.8
4432.68 39328.1
4435.55 39121.8
4438.42 38912.2
4441.29 38793.2
4444.16 38609.9
4447.03 38611.6
4449.9 38627
4452.77 38511.1
4455.64 38390.8
4458.51 38231.5
4461.39 38087.1
4464.26 37942.7
4467.13 37840.6
4470 37713.9
4472.87 37648.1
4475.74 37494.8
4478.61 37357.4
4481.48 37264.1
4484.35 37020.8
4487.22 36889
4490.09 36756.9
4492.97 36625.3
4495.84 36489.2
4498.71 36156
4501.58 36151.4
4504.45 36010.9
4507.32 35736.8
4510.19 35560.5
4513.06 35354.9
4515.93 35219.2
4518.8 35107
4521.67 34802.8
4524.55 34631.3
4527.42 34508.4
4530.29 34308.2
4533.16 33982.1
4536.03 33819.4
4538.9 33727.5
4541.77 33476.2
4544.64 33069.1
4547.51 32931.3
4550.38 32778.1
4553.25 32417.8
4556.13 32347.4
4559 32181.2
4561.87 31701.5
4564.74 31595.3
4567.61 31312.5
4570.48 31071.8
4573.35 30852.3
4576.22 30607.1
4579.09 30197.9
4581.96 29942.5
4584.83 29736.5
4587.71 29513.9
4590.58 29236.4
4593.45 28985.4
4596.32 28665.2
4599.19 28405.4
4602.06 28054.8
4604.93 27910.9
4607.8 27611.5
4610.67 27320.7
4613.54 26928.4
4616.41 26630.2
4619.29 26436.5
4622.16 26277.1
4625.03 25830.5
4627.9 25499.8
4630.77 25266.3
4633.64 24887.6
4636.51 24776.7
4639.38 24446.2
4642.25 24121.4
4645.12 23789.1
4647.99 23372.2
4650.87 23202.6
4653.74 22775.9
4656.61 22540.6
4659.48 22258.6
4662.35 22057.3
4665.22 21627.9
4668.09 21337.7
4670.96 20985.8
4673.83 20723.9
4676.7 20485.7
4679.57 20165.2
4682.45 19975.4
4685.32 19539.2
4688.19 19219.6
4691.06 19051.1
4693.93 18643.5
4696.8 18395
4699.67 18033.6
4702.54 17876.4
4705.41 17482.8
4708.28 17129.8
4711.15 16814.1
4714.03 16729.4
4716.9 16306.5
4719.77 16128.9
4722.64 15651
4725.51 15462.2
4728.38 15213.7
4731.25 14938.1
4734.12 14696.1
4736.99 14453.1
4739.86 14210.7
4742.73 13852.7
4745.6 13666.7
4748.48 13402.7
4751.35 13263.1
4754.22 12920.8
4757.09 12668.5
4759.96 12265.6
4762.83 11946.7
4765.7 11680.3
4768.57 11475.9
4771.44 11311.3
4774.31 11058
4777.18 10839.4
4780.06 10572.6
4782.93 10384
4785.8 10042.1
4788.67 9690.51
4791.54 9533.85
4794.41 9356.6
4797.28 9123.81
4800.15 8863.84
4803.02 8696.61
4805.89 8459.84
4808.76 8252.31
4811.64 8073.37
4814.51 7866.4
4817.38 7670.35
4820.25 7528.3
4823.12 7289.19
4825.99 7063.75
4828.86 6914.67
4831.73 6780
4834.6 6551.54
4837.47 6520.91
4840.34 6313.82
4843.22 6031.28
4846.09 5704.92
4848.96 5581.82
4851.83 5695.24
4854.7 5591.56
4857.57 5381.56
4860.44 5246.9
4863.31 5050.29
4866.18 4929.35
4869.05 4721.77
4871.92 4479.15
4874.8 4464.6
4877.67 4412.57
4880.54 4252.35
4883.41 4074.95
4886.28 4063.94
4889.15 3839.67
4892.02 3641.31
4894.89 3531.54
4897.76 3435.96
4900.63 3430.05
4903.5 3244.43
4906.38 3283.78
4909.25 3084.19
4912.12 3040.15
4914.99 2902.39
4917.86 2867.87
4920.73 2746.6
4923.6 2662.77
4926.47 2565.64
4929.34 2483.98
4932.21 2361.12
4935.08 2201.33
4937.96 2311.86
4940.83 2200.05
4943.7 2162.77
4946.57 1983.4
4949.44 1926.7
4952.31 1879.27
4955.18 1862.17
4958.05 1711.21
4960.92 1688.92
4963.79 1659.01
4966.67 1653.56
4969.54 1674.02
4972.41 1469.16
4975.28 1420.87
4978.15 1303.42
4981.02 1263.22
4983.89 1384.46
4986.76 1277.03
4989.63 1245.35
4992.5 1181.22
4995.37 1053.11
4998.24 1079.17
5001.12 1042.25
5003.99 902.52
5006.86 866.197
5009.73 945.965
5012.6 963.893
5015.47 867.996
5018.34 792.11
5021.21 762.558
5024.08 742.037
5026.95 723.137
5029.82 704.77
5032.7 641.394
5035.57 558.758
5038.44 561.006
5041.31 598.604
5044.18 521.388
5047.05 566.453
5049.92 550.806
5052.79 445.358
5055.66 443.972
5058.53 451.992
5061.4 400.98
5064.28 462.064
5067.15 367.187
5070.02 498.377
5072.89 357.689
5075.76 400.032
5078.63 329.459
5081.5 470.54
5084.37 379.004
5087.24 280.633
5090.11 320.992
5092.98 375.931
5095.86 293.084
5098.73 236.899
5101.6 230.633
5104.47 286.887
5107.34 275.008
5110.21 382.681
5113.08 377.247
5115.95 285.849
5118.82 268.172
5121.69 344.894
5124.56 326.202
5127.44 317.301
5130.31 294.761
5133.18 306.433
5136.05 403.815
5138.92 354.178
5141.79 199.645
5144.66 308.78
5147.53 370.474
5150.4 401.087
5153.27 302.244
5156.14 339.651
5159.02 362.37
5161.89 347.247
5164.76 406.573
5167.63 396.479
5170.5 377.183
5173.37 404.514
5176.24 491.022
5179.11 495.581
5181.98 381.682
5184.85 487.92
5187.72 391.804
5190.6 425.011
5193.47 540.699
5196.34 386.014
5199.21 343.361
5202.08 452.643
5204.95 363.67
5207.82 420.623
5210.69 459.661
5213.56 458.37
5216.43 522.037
5219.3 497.783
5222.18 472.482
5225.05 375.853
5227.92 415.708
5230.79 597.329
5233.66 494.3
5236.53 561.945
5239.4 511.838
5242.27 511.262
5245.14 563.195
5248.01 487.13
5250.88 566.943
5253.75 553.1
5256.63 500.726
5259.5 440.996
5262.37 567.017
5265.24 502.413
5268.11 443.564
5270.98 455.556
5273.85 488.747
5276.72 525.62
5279.59 653.181
5282.46 631.668
5285.33 682.491
5288.21 620.808
5291.08 672.449
5293.95 662.963
5296.82 464.447
5299.69 644.712
5302.56 676.437
5305.43 572.903
5308.3 593.905
5311.17 663.888
5314.04 550.71
5316.92 691.708
5319.79 620.455
5322.66 662.352
5325.53 660.105
5328.4 686.884
5331.27 738.899
5334.14 771.331
5337.01 726.519
5339.88 579.161
5342.75 692.479
5345.62 653.037
5348.5 705.424
5351.37 721.73
5354.24 676.254
5357.11 655.869
5359.98 612.299
5362.85 726.754
5365.72 684.376
5368.59 700.683
5371.46 738.283
5374.33 720.807
5377.2 681.365
5380.07 675.479
5382.95 730.605
5385.82 670.794
5388.69 693.635
5391.56 505.716
5394.43 659.591
5397.3 722.605
5400.17 687.641
5403.04 696.091
5405.91 722.133
5408.78 779.168
5411.65 682.076
5414.53 636.241
5417.4 611.846
5420.27 658.623
5423.14 760.447
5426.01 541.668
5428.88 679.986
5431.75 663.694
5434.62 604.472
5437.49 560.345
5440.36 544.814
5443.23 694.912
5446.11 491.281
5448.98 543.14
5451.85 632.202
5454.72 651.22
5457.59 572.264
5460.46 498.202
5463.33 567.03
5466.2 594.722
5469.07 465.672
5471.94 548.56
5474.81 644.708
5477.69 536.129
5480.56 569.64
5483.43 678.318
5486.3 617.532
5489.17 570.568
5492.04 531.037
5494.91 476.463
5497.78 508.126
5500.65 436.016
5503.52 460.798
5506.4 544.472
5509.27 565.085
5512.14 555.348
5515.01 575.458
5517.88 652.039
5520.75 405.025
5523.62 468.146
5526.49 390.828
5529.36 510.306
5532.23 481.908
5535.1 519.909
5537.97 512.216
5540.85 481.355
5543.72 447.006
5546.59 689.579
5549.46 665.431
5552.33 688.112
5555.2 532.823
5558.07 566.243
5560.94 411.794
5563.81 435.699
5566.68 598.627
5569.55 610.234
5572.43 485.877
5575.3 574.943
5578.17 590.211
5581.04 573.567
5583.91 503.111
5586.78 543.806
5589.65 505.879
5592.52 541.981
5595.39 498.394
5598.26 490.055
5601.13 483.24
5604.01 500.12
5606.88 595.108
5609.75 577.218
5612.62 577.749
5615.49 493.143
5618.36 463.554
5621.23 478.854
5624.1 549.973
5626.97 660.268
5629.84 482.509
5632.71 548.001
5635.59 609.751
5638.46 664.023
5641.33 504.81
5644.2 548.345
5647.07 592.7
5649.94 464.713
5652.81 453.882
5655.68 569.624
5658.55 646.113
5661.42 580.806
5664.29 443.948
5667.17 485.068
5670.04 500.185
5672.91 513.185
5675.78 536.749
5678.65 511.066
5681.52 441.039
5684.39 532.165
5687.26 493.595
5690.13 573.984
5693 531.604
5695.87 631.375
5698.75 465.788
5701.62 473.546
5704.49 524.419
5707.36 537.303
5710.23 570.635
5713.1 409.347
5715.97 433.23
5718.84 580.244
5721.71 618.065
5724.58 497.687
5727.45 496.383
5730.33 552.2
5733.2 550.107
5736.07 488.425
5738.94 429.763
5741.81 460.936
5744.68 473.585
5747.55 519.426
5750.42 531.279
5753.29 496.754
5756.16 511.079
5759.03 335.292
5761.9 538.202
5764.78 537.619
5767.65 421.003
5770.52 431.879
5773.39 498.905
5776.26 423.518
5779.13 554.251
5782 561.76
5784.87 501.187
5787.74 530.625
5790.61 523.287
5793.48 492.604
5796.36 548.724
5799.23 459.442
5802.1 439.47
5804.97 496.915
5807.84 489.364
5810.71 590.198
5813.58 449.979
5816.45 455.676
5819.32 492.956
5822.19 403.112
5825.06 453.314
5827.94 430.657
5830.81 529.234
5833.68 508.107
5836.55 544.743
5839.42 468.783
5842.29 510.96
5845.16 466.867
5848.03 500.274
5850.9 462.056
5853.77 394.448
5856.65 369.933
5859.52 462.368
5862.39 491.703
5865.26 507.791
5868.13 556.048
5871 433.788
5873.87 496.997
5876.74 444.635
