scanname 扫描249
timestamp 1/1/1970 00:13
scancount 1
laserwavenum 850.5
measurementstate Unknown
scanmode Identification
snr 4.32073 4.32073 4.32073
replacelist 0
peaks 18
734.146 0.075814 0 1.2139 0.000267685
752.557 0.0698668 0 1.72796 0.000262804
775.145 0.0561701 0 1.72754 0.000204341
800.946 0.0739302 0 5.75644 0.000401326
830.247 0.0629994 0 4.14936 0.000243261
846.123 0.0689878 0 7.02802 0.0003329
910.253 0.0516211 0 5.76655 0.000188476
942.66 0.0483138 0 5.19164 0.000141403
978.73 0.0363193 0 0.51244 2.63485e-05
1035.32 0.0515699 0 2.50332 6.16037e-05
1157.09 0.0658865 0 5.95949 0.00020951
1191.97 0.054625 0 1.35843 7.61127e-05
1344.57 0.136424 0 6.51566 0.000238461
1403.52 0.0669984 0 1.91164 8.52944e-05
1466.78 0.101765 0 4.74896 0.000185319
1533.15 0.16462 0 3.39705 0.000169935
1596.06 0.0417512 0 1.37917 7.15894e-05
3083.95 0.0523557 0 1.92215 0.000107718
finalresult No match found 1A14282	1.51086e-13
spectrum 2048
0 -7.69839
2.86447 -7.22351
5.72895 -5.56913
8.59342 -5.75912
11.4579 -4.98227
14.3224 -2.19108
17.1868 -1.12711
20.0513 -2.03738
22.9158 -1.13934
25.7803 -1.20068
28.6447 1.56826
31.5092 1.20697
34.3737 1.62567
37.2382 3.48416
40.1026 1.45168
42.9671 3.13726
45.8316 1.44706
48.696 4.1447
51.5605 2.9221
54.425 -0.403425
57.2895 0.890628
60.1539 8.19788
63.0184 3.37141
65.8829 -0.262432
68.7474 -1.32301
71.6118 -1.42148
74.4763 0.112068
77.3408 1.19927
80.2053 6.93696
83.0697 1.19313
85.9342 1.37791
88.7987 1.68191
91.6632 2.82912
94.5276 5.42985
97.3921 1.43829
100.257 6.17486
103.121 2.07402
105.986 4.35946
108.85 2.16131
111.714 1.57075
114.579 1.39223
117.443 1.38475
120.308 0.713832
123.172 0.365227
126.037 -1.15752
128.901 0.17839
131.766 4.26869
134.63 1.55114
137.495 0.590083
140.359 1.39947
143.224 -0.797502
146.088 2.62665
148.953 -0.258203
151.817 2.9674
154.682 4.15247
157.546 4.0651
160.411 3.06879
163.275 0.143287
166.139 -2.06679
169.004 1.14222
171.868 0.927061
174.733 -2.31475
177.597 -2.25754
180.462 -2.11234
183.326 -2.91768
186.191 -2.78923
189.055 -2.31384
191.92 5.50881
194.784 3.76432
197.649 1.74518
200.513 -1.37171
203.378 -3.60732
206.242 -4.19298
209.107 -1.59549
211.971 -3.36028
214.836 -3.49502
217.7 -3.0466
220.564 -0.782414
223.429 1.02586
226.293 0.2614
229.158 4.07245
232.022 3.35989
234.887 1.89516
237.751 2.48834
240.616 1.29602
243.48 1.07885
246.345 -1.74229
249.209 -0.322765
252.074 8.13906
254.938 10.4094
257.803 3.88523
260.667 0.162953
263.532 -2.17013
266.396 2.78942
269.26 1.38571
272.125 1.80135
274.989 1.91386
277.854 -0.836853
280.718 4.53646
283.583 0.704094
286.447 0.948845
289.312 3.07552
292.176 3.79246
295.041 -0.629793
297.905 -1.77158
300.77 -1.46991
303.634 1.22235
306.499 2.23014
309.363 -0.453353
312.228 3.30038
315.092 3.0375
317.957 1.97161
320.821 4.46291
323.686 2.94347
326.55 3.09173
329.414 -3.34877
332.279 -3.48124
335.143 -1.47747
338.008 -0.969022
340.872 -0.889521
343.737 0.0481296
346.601 0.375404
349.466 5.99611
352.33 4.36172
355.195 -0.101819
358.059 0.983942
360.924 1.89776
363.788 -0.00875977
366.653 2.69878
369.517 1.015
372.382 0.921583
375.246 5.27525
378.111 4.0474
380.975 3.4792
383.839 2.46646
386.704 1.19874
389.568 2.66996
392.433 4.64219
395.297 5.67608
398.162 7.11289
401.026 8.51371
403.891 8.64115
406.755 3.50686
409.62 -0.827938
412.484 0.616554
415.349 9.59892
418.213 2.28736
421.078 1.61583
423.942 -0.4453
426.807 0.17615
429.671 5.03438
432.535 5.93354
435.4 7.89617
438.264 0.264096
441.129 -0.456056
443.993 1.76433
446.858 1.98946
449.722 3.93001
452.587 5.48717
455.451 1.67886
458.316 -0.695553
461.18 -0.850957
464.045 2.99876
466.909 4.49321
469.774 6.931
472.638 -0.573981
475.503 0.48317
478.367 3.21372
481.232 2.58981
484.096 0.0576123
486.961 -3.57494
489.825 -2.21251
492.689 -0.501951
495.554 -0.370961
498.418 -0.910484
501.283 0.339344
504.147 1.04019
507.012 2.6431
509.876 3.18884
512.741 -1.38723
515.605 -0.723402
518.47 2.24897
521.334 1.64522
524.199 -0.638457
527.063 1.05022
529.928 1.79011
532.792 4.03723
535.657 2.98621
538.521 6.73041
541.385 -1.70793
544.25 -2.40694
547.115 -2.68895
549.979 -0.951677
552.843 3.18405
555.708 -0.945426
558.572 -0.32004
561.437 2.96055
564.301 5.5347
567.166 2.98734
570.03 4.24027
572.895 2.7335
575.759 -0.196851
578.624 -1.04062
581.488 -1.63355
584.353 0.139745
587.217 1.18964
590.082 1.76088
592.946 -0.954322
595.81 -0.0864183
598.675 -0.691632
601.539 0.277584
604.404 -0.105789
607.268 -0.911945
610.133 -0.248163
612.997 0.0181142
615.862 -0.973906
618.726 -0.958996
621.591 0.153087
624.455 -0.0196047
627.32 0.324807
630.184 0.0523908
633.049 -0.0868187
635.913 0.504162
638.778 0.0169997
641.642 0.444297
644.507 0.788248
647.371 0.545119
650.235 0.142123
653.1 0.180214
655.964 0.311298
658.829 0.211309
661.693 0.254685
664.558 0.19954
667.422 0.116582
670.287 0.41273
673.151 0.396045
676.016 0.281078
678.88 0.484778
681.745 0.317273
684.609 0.22209
687.474 0.494542
690.338 0.557449
693.203 0.63671
696.067 0.690257
698.932 0.784624
701.796 0.430816
704.66 0.355527
707.525 0.314528
710.389 0.378755
713.254 0.461487
716.118 0.421631
718.983 0.379773
721.847 0.409159
724.712 0.503685
727.576 0.546369
730.441 0.667379
733.305 0.767138
736.17 0.969542
739.034 0.6357
741.899 0.489364
744.763 0.494037
747.628 0.513387
750.492 0.596844
753.357 0.793117
756.221 0.865357
759.086 0.519854
761.95 0.372541
764.814 0.328678
767.679 0.387772
770.543 0.518722
773.408 0.710592
776.272 0.660626
779.137 0.395149
782.001 0.339323
784.866 0.364667
787.73 0.315801
790.595 0.367464
793.459 0.448607
796.324 0.54498
799.188 0.721596
802.053 0.9106
804.917 0.845313
807.782 0.335401
810.646 0.224742
813.51 0.22594
816.375 0.260951
819.239 0.290406
822.104 0.366069
824.968 0.435579
827.833 0.638986
830.697 0.862663
833.562 0.634769
836.426 0.418551
839.291 0.43076
842.155 0.557134
845.02 0.812211
847.884 0.885486
850.749 0.564599
853.613 0.320606
856.478 0.256636
859.342 0.223341
862.207 0.22936
865.071 0.252619
867.935 0.259263
870.8 0.250453
873.664 0.261803
876.529 0.285028
879.393 0.270216
882.258 0.260825
885.122 0.268417
887.987 0.301303
890.851 0.314469
893.716 0.335772
896.58 0.334762
899.445 0.334695
902.309 0.357131
905.174 0.40044
908.038 0.493558
910.903 0.653852
913.767 0.531822
916.632 0.349741
919.496 0.290803
922.36 0.294613
925.225 0.295363
928.089 0.296791
930.954 0.325368
933.818 0.341565
936.683 0.394237
939.547 0.452013
942.412 0.514166
945.276 0.533364
948.141 0.429228
951.005 0.337071
953.87 0.321176
956.734 0.319792
959.599 0.31822
962.463 0.311927
965.328 0.322754
968.192 0.33019
971.057 0.339303
973.921 0.350534
976.785 0.359226
979.65 0.393333
982.514 0.353157
985.379 0.33577
988.243 0.345161
991.108 0.344784
993.972 0.357796
996.837 0.362274
999.701 0.359002
1002.57 0.359539
1005.43 0.372297
1008.29 0.388317
1011.16 0.382857
1014.02 0.39008
1016.89 0.393605
1019.75 0.410772
1022.62 0.431612
1025.48 0.4532
1028.35 0.48635
1031.21 0.514545
1034.07 0.50578
1036.94 0.512235
1039.8 0.507793
1042.67 0.486707
1045.53 0.440588
1048.4 0.414847
1051.26 0.40611
1054.13 0.396973
1056.99 0.376127
1059.86 0.386909
1062.72 0.390236
1065.58 0.394696
1068.45 0.388036
1071.31 0.365897
1074.18 0.371141
1077.04 0.379125
1079.91 0.381628
1082.77 0.407584
1085.64 0.399013
1088.5 0.388578
1091.36 0.396285
1094.23 0.400846
1097.09 0.406436
1099.96 0.404939
1102.82 0.408398
1105.69 0.402105
1108.55 0.417251
1111.42 0.407605
1114.28 0.433508
1117.14 0.442638
1120.01 0.44683
1122.87 0.4293
1125.74 0.432619
1128.6 0.457269
1131.47 0.475579
1134.33 0.513495
1137.2 0.49234
1140.06 0.45463
1142.92 0.453238
1145.79 0.452734
1148.65 0.497787
1151.52 0.518417
1154.38 0.555185
1157.25 0.653903
1160.11 0.800396
1162.98 0.637881
1165.84 0.404609
1168.71 0.372295
1171.57 0.41516
1174.43 0.412049
1177.3 0.427248
1180.16 0.456482
1183.03 0.477865
1185.89 0.49595
1188.76 0.529297
1191.62 0.549633
1194.49 0.563765
1197.35 0.539472
1200.21 0.476593
1203.08 0.449959
1205.94 0.45409
1208.81 0.472934
1211.67 0.468126
1214.54 0.46836
1217.4 0.471062
1220.27 0.49023
1223.13 0.504775
1225.99 0.501006
1228.86 0.494583
1231.72 0.507259
1234.59 0.51419
1237.45 0.52264
1240.32 0.525993
1243.18 0.522325
1246.05 0.543149
1248.91 0.565946
1251.78 0.571044
1254.64 0.538955
1257.5 0.543142
1260.37 0.545694
1263.23 0.549194
1266.1 0.553176
1268.96 0.568359
1271.83 0.581571
1274.69 0.593356
1277.56 0.607029
1280.42 0.641608
1283.28 0.645972
1286.15 0.667604
1289.01 0.689738
1291.88 0.698656
1294.74 0.703258
1297.61 0.731579
1300.47 0.753572
1303.34 0.787177
1306.2 0.812566
1309.06 0.826494
1311.93 0.845415
1314.79 0.866779
1317.66 0.893749
1320.52 0.955867
1323.39 0.972166
1326.25 1.00455
1329.12 1.05569
1331.98 1.11661
1334.84 1.14873
1337.71 1.21821
1340.57 1.30931
1343.44 1.40389
1346.3 1.41419
1349.17 1.29059
1352.03 1.17908
1354.9 1.08632
1357.76 0.983591
1360.62 0.886201
1363.49 0.789814
1366.35 0.754134
1369.22 0.722567
1372.08 0.683209
1374.95 0.660669
1377.81 0.629951
1380.68 0.601856
1383.54 0.610551
1386.41 0.657824
1389.27 0.656422
1392.13 0.610389
1395 0.614254
1397.86 0.624261
1400.73 0.658555
1403.59 0.690424
1406.46 0.681126
1409.32 0.634891
1412.19 0.583969
1415.05 0.546842
1417.91 0.50716
1420.78 0.538092
1423.64 0.551856
1426.51 0.587129
1429.37 0.603128
1432.24 0.637406
1435.1 0.615512
1437.97 0.640585
1440.83 0.653344
1443.69 0.689925
1446.56 0.700665
1449.42 0.758152
1452.29 0.794631
1455.15 0.784434
1458.02 0.871579
1460.88 0.926046
1463.75 0.956814
1466.61 1.04999
1469.47 1.0721
1472.34 0.955947
1475.2 0.815768
1478.07 0.809227
1480.93 0.844617
1483.8 0.903767
1486.66 0.952474
1489.53 1.00057
1492.39 1.076
1495.26 1.08627
1498.12 1.14662
1500.98 1.21055
1503.85 1.21937
1506.71 1.26308
1509.58 1.37119
1512.44 1.4206
1515.31 1.41027
1518.17 1.47034
1521.04 1.4506
1523.9 1.53627
1526.76 1.58898
1529.63 1.61967
1532.49 1.59359
1535.36 1.69417
1538.22 1.59259
1541.09 1.55365
1543.95 1.43946
1546.82 1.30471
1549.68 1.19376
1552.54 1.08826
1555.41 0.986371
1558.27 0.806001
1561.14 0.807842
1564 0.730247
1566.87 0.6263
1569.73 0.509985
1572.6 0.430295
1575.46 0.337162
1578.33 0.304666
1581.19 0.303416
1584.05 0.29977
1586.92 0.340825
1589.78 0.400006
1592.65 0.437624
1595.51 0.433645
1598.38 0.365231
1601.24 0.36493
1604.11 0.408237
1606.97 0.355294
1609.83 0.263038
1612.7 0.206453
1615.56 0.159021
1618.43 0.146583
1621.29 0.146797
1624.16 0.148232
1627.02 0.142421
1629.89 0.149978
1632.75 0.151067
1635.61 0.151252
1638.48 0.173662
1641.34 0.147146
1644.21 0.154048
1647.07 0.174536
1649.94 0.167631
1652.8 0.163155
1655.67 0.151838
1658.53 0.169946
1661.39 0.148183
1664.26 0.163349
1667.12 0.146984
1669.99 0.166069
1672.85 0.170534
1675.72 0.16199
1678.58 0.143493
1681.45 0.158513
1684.31 0.14433
1687.18 0.173167
1690.04 0.172646
1692.9 0.16897
1695.77 0.17512
1698.63 0.190166
1701.5 0.198501
1704.36 0.178406
1707.23 0.173489
1710.09 0.175913
1712.96 0.166975
1715.82 0.158367
1718.68 0.151803
1721.55 0.156342
1724.41 0.169811
1727.28 0.176167
1730.14 0.167017
1733.01 0.159564
1735.87 0.170723
1738.74 0.16964
1741.6 0.173652
1744.46 0.182461
1747.33 0.174955
1750.19 0.151589
1753.06 0.154193
1755.92 0.181181
1758.79 0.170515
1761.65 0.17934
1764.52 0.171685
1767.38 0.174322
1770.24 0.162421
1773.11 0.162513
1775.97 0.176618
1778.84 0.172253
1781.7 0.171073
1784.57 0.163996
1787.43 0.174372
1790.3 0.176113
1793.16 0.177085
1796.02 0.198701
1798.89 0.193074
1801.75 0.187264
1804.62 0.189941
1807.48 0.186114
1810.35 0.193909
1813.21 0.190734
1816.08 0.178337
1818.94 0.171198
1821.81 0.198289
1824.67 0.187853
1827.53 0.184022
1830.4 0.191998
1833.26 0.18816
1836.13 0.207178
1838.99 0.182702
1841.86 0.170918
1844.72 0.184436
1847.59 0.168098
1850.45 0.191289
1853.31 0.174287
1856.18 0.163442
1859.04 0.156715
1861.91 0.170535
1864.77 0.172088
1867.64 0.168751
1870.5 0.182946
1873.37 0.180915
1876.23 0.179226
1879.09 0.173869
1881.96 0.190544
1884.82 0.180085
1887.69 0.177215
1890.55 0.160177
1893.42 0.145333
1896.28 0.174777
1899.15 0.192412
1902.01 0.179343
1904.87 0.16057
1907.74 0.174077
1910.6 0.196589
1913.47 0.179967
1916.33 0.180208
1919.2 0.178743
1922.06 0.166201
1924.93 0.155432
1927.79 0.155607
1930.66 0.159117
1933.52 0.174839
1936.38 0.153874
1939.25 0.155125
1942.11 0.150962
1944.98 0.173715
1947.84 0.184673
1950.71 0.154994
1953.57 0.173836
1956.44 0.143387
1959.3 0.107671
1962.16 0.161436
1965.03 0.137163
1967.89 0.131622
1970.76 0.108694
1973.62 0.111001
1976.49 0.0840253
1979.35 0.152651
1982.22 0.168883
1985.08 0.16299
1987.94 0.160415
1990.81 0.127511
1993.67 0.123
1996.54 0.113025
1999.4 0.117183
2002.27 0.15088
2005.13 0.17866
2008 0.168247
2010.86 0.10492
2013.72 0.100057
2016.59 0.122925
2019.45 0.0822092
2022.32 0.167881
2025.18 0.143872
2028.05 0.149475
2030.91 0.146313
2033.78 0.141333
2036.64 0.112796
2039.51 0.161432
2042.37 0.150979
2045.23 0.160017
2048.1 0.140721
2050.96 0.170887
2053.83 0.173403
2056.69 0.176853
2059.56 0.153204
2062.42 0.156863
2065.29 0.187141
2068.15 0.197268
2071.01 0.180026
2073.88 0.191329
2076.74 0.190252
2079.61 0.213411
2082.47 0.199106
2085.34 0.203729
2088.2 0.190281
2091.07 0.187801
2093.93 0.188647
2096.79 0.181473
2099.66 0.18088
2102.52 0.163826
2105.39 0.171981
2108.25 0.198223
2111.12 0.181989
2113.98 0.176107
2116.85 0.201919
2119.71 0.210266
2122.58 0.191207
2125.44 0.164315
2128.3 0.181194
2131.17 0.175835
2134.03 0.183201
2136.9 0.184989
2139.76 0.173744
2142.63 0.168074
2145.49 0.14799
2148.36 0.138757
2151.22 0.126797
2154.08 0.117427
2156.95 0.116923
2159.81 0.106931
2162.68 0.154983
2165.54 0.165339
2168.41 0.13616
2171.27 0.16641
2174.14 0.118364
2177 0.161527
2179.86 0.16769
2182.73 0.18252
2185.59 0.180957
2188.46 0.166255
2191.32 0.145839
2194.19 0.166997
2197.05 0.15728
2199.92 0.171079
2202.78 0.171961
2205.64 0.156971
2208.51 0.199909
2211.37 0.184708
2214.24 0.216803
2217.1 0.194832
2219.97 0.185297
2222.83 0.164373
2225.7 0.176129
2228.56 0.173757
2231.43 0.204868
2234.29 0.200601
2237.15 0.193518
2240.02 0.222297
2242.88 0.205832
2245.75 0.225842
2248.61 0.177272
2251.48 0.198693
2254.34 0.208124
2257.21 0.202302
2260.07 0.225684
2262.93 0.234988
2265.8 0.236676
2268.66 0.239733
2271.53 0.234511
2274.39 0.229738
2277.26 0.234409
2280.12 0.236081
2282.99 0.2565
2285.85 0.246354
2288.71 0.264601
2291.58 0.261822
2294.44 0.262618
2297.31 0.257572
2300.17 0.267549
2303.04 0.268399
2305.9 0.263203
2308.77 0.272758
2311.63 0.27096
2314.49 0.268913
2317.36 0.277855
2320.22 0.275891
2323.09 0.285718
2325.95 0.288
2328.82 0.290177
2331.68 0.282745
2334.55 0.267417
2337.41 0.257408
2340.28 0.265912
2343.14 0.268488
2346 0.294276
2348.87 0.295216
2351.73 0.28166
2354.6 0.285607
2357.46 0.277306
2360.33 0.282519
2363.19 0.273918
2366.06 0.28089
2368.92 0.29251
2371.78 0.282781
2374.65 0.264873
2377.51 0.286307
2380.38 0.274248
2383.24 0.26536
2386.11 0.281451
2388.97 0.273908
2391.84 0.260722
2394.7 0.275447
2397.56 0.267185
2400.43 0.266611
2403.29 0.262829
2406.16 0.268303
2409.02 0.267723
2411.89 0.265308
2414.75 0.271008
2417.62 0.257797
2420.48 0.276033
2423.34 0.269568
2426.21 0.269893
2429.07 0.271509
2431.94 0.268883
2434.8 0.277901
2437.67 0.283814
2440.53 0.274031
2443.4 0.289776
2446.26 0.28454
2449.12 0.27351
2451.99 0.270115
2454.85 0.292324
2457.72 0.287222
2460.58 0.289704
2463.45 0.279249
2466.31 0.260154
2469.18 0.271999
2472.04 0.289372
2474.91 0.302413
2477.77 0.290561
2480.63 0.284349
2483.5 0.287505
2486.36 0.289871
2489.23 0.285151
2492.09 0.274466
2494.96 0.266854
2497.82 0.270234
2500.69 0.267431
2503.55 0.275771
2506.41 0.275512
2509.28 0.260579
2512.14 0.283286
2515.01 0.293385
2517.87 0.27653
2520.74 0.270253
2523.6 0.257902
2526.47 0.270092
2529.33 0.28018
2532.19 0.277335
2535.06 0.283071
2537.92 0.290335
2540.79 0.284198
2543.65 0.279649
2546.52 0.281932
2549.38 0.282029
2552.25 0.271098
2555.11 0.275397
2557.98 0.297875
2560.84 0.286796
2563.7 0.298965
2566.57 0.272587
2569.43 0.293025
2572.3 0.29914
2575.16 0.270079
2578.03 0.287889
2580.89 0.283779
2583.76 0.3004
2586.62 0.284232
2589.48 0.302912
2592.35 0.293014
2595.21 0.283486
2598.08 0.281422
2600.94 0.2961
2603.81 0.308047
2606.67 0.313833
2609.54 0.319693
2612.4 0.319392
2615.26 0.309653
2618.13 0.311696
2620.99 0.298751
2623.86 0.308973
2626.72 0.324504
2629.59 0.328256
2632.45 0.320675
2635.32 0.33084
2638.18 0.310671
2641.04 0.317728
2643.91 0.317327
2646.77 0.313707
2649.64 0.333659
2652.5 0.329552
2655.37 0.342287
2658.23 0.339475
2661.1 0.334934
2663.96 0.326979
2666.82 0.325852
2669.69 0.328443
2672.55 0.32412
2675.42 0.326514
2678.28 0.334493
2681.15 0.334757
2684.01 0.347079
2686.88 0.346968
2689.74 0.351559
2692.61 0.344571
2695.47 0.338174
2698.33 0.342838
2701.2 0.341019
2704.06 0.342298
2706.93 0.341179
2709.79 0.334274
2712.66 0.343108
2715.52 0.335587
2718.39 0.34297
2721.25 0.35426
2724.11 0.345411
2726.98 0.337037
2729.84 0.335559
2732.71 0.337268
2735.57 0.343371
2738.44 0.325482
2741.3 0.334973
2744.17 0.345243
2747.03 0.337357
2749.89 0.336389
2752.76 0.323742
2755.62 0.332757
2758.49 0.336147
2761.35 0.346987
2764.22 0.334058
2767.08 0.338063
2769.95 0.341623
2772.81 0.342961
2775.68 0.339463
2778.54 0.330894
2781.4 0.33616
2784.27 0.347198
2787.13 0.334276
2790 0.338492
2792.86 0.34464
2795.73 0.344491
2798.59 0.343365
2801.46 0.357859
2804.32 0.346881
2807.18 0.355795
2810.05 0.357669
2812.91 0.352006
2815.78 0.367647
2818.64 0.35593
2821.51 0.342125
2824.37 0.35518
2827.24 0.349149
2830.1 0.336874
2832.96 0.347978
2835.83 0.362028
2838.69 0.355405
2841.56 0.349076
2844.42 0.357978
2847.29 0.361758
2850.15 0.364668
2853.02 0.374271
2855.88 0.376785
2858.74 0.376894
2861.61 0.366753
2864.47 0.369884
2867.34 0.385948
2870.2 0.381409
2873.07 0.393978
2875.93 0.411649
2878.8 0.405059
2881.66 0.416507
2884.53 0.415605
2887.39 0.421932
2890.25 0.410836
2893.12 0.410118
2895.98 0.418536
2898.85 0.431678
2901.71 0.405196
2904.58 0.40945
2907.44 0.409401
2910.31 0.414438
2913.17 0.39673
2916.03 0.39797
2918.9 0.380978
2921.76 0.369663
2924.63 0.373058
2927.49 0.375658
2930.36 0.376831
2933.22 0.372804
2936.09 0.354394
2938.95 0.363531
2941.81 0.353769
2944.68 0.370912
2947.54 0.369254
2950.41 0.370771
2953.27 0.37024
2956.14 0.362099
2959 0.357303
2961.87 0.358761
2964.73 0.359644
2967.59 0.354999
2970.46 0.352853
2973.32 0.367088
2976.19 0.357092
2979.05 0.355642
2981.92 0.352929
2984.78 0.357606
2987.65 0.358767
2990.51 0.341419
2993.38 0.364313
2996.24 0.350918
2999.1 0.369824
3001.97 0.366123
3004.83 0.367369
3007.7 0.363793
3010.56 0.370081
3013.43 0.363019
3016.29 0.364765
3019.16 0.369905
3022.02 0.358267
3024.88 0.373866
3027.75 0.358289
3030.61 0.370591
3033.48 0.370092
3036.34 0.375513
3039.21 0.362712
3042.07 0.388699
3044.94 0.379339
3047.8 0.392298
3050.66 0.39863
3053.53 0.407182
3056.39 0.414684
3059.26 0.406063
3062.12 0.404612
3064.99 0.385703
3067.85 0.386259
3070.72 0.403697
3073.58 0.42171
3076.44 0.447678
3079.31 0.468304
3082.17 0.527505
3085.04 0.574818
3087.9 0.516996
3090.77 0.436228
3093.63 0.397402
3096.5 0.377221
3099.36 0.345459
3102.23 0.368316
3105.09 0.366458
3107.95 0.360495
3110.82 0.357199
3113.68 0.349706
3116.55 0.337697
3119.41 0.362057
3122.28 0.36293
3125.14 0.379732
3128.01 0.366247
3130.87 0.367346
3133.73 0.343326
3136.6 0.34457
3139.46 0.344944
3142.33 0.350304
3145.19 0.367537
3148.06 0.358936
3150.92 0.359798
3153.79 0.364037
3156.65 0.365426
3159.51 0.365325
3162.38 0.363432
3165.24 0.353099
3168.11 0.346935
3170.97 0.360177
3173.84 0.370118
3176.7 0.36805
3179.57 0.356688
3182.43 0.354017
3185.29 0.363833
3188.16 0.388851
3191.02 0.386124
3193.89 0.380919
3196.75 0.360573
3199.62 0.35628
3202.48 0.378332
3205.35 0.383878
3208.21 0.359489
3211.07 0.365441
3213.94 0.367938
3216.8 0.372181
3219.67 0.368347
3222.53 0.377104
3225.4 0.369078
3228.26 0.377958
3231.13 0.362034
3233.99 0.35929
3236.86 0.365189
3239.72 0.359011
3242.58 0.358659
3245.45 0.380138
3248.31 0.371768
3251.18 0.347804
3254.04 0.364476
3256.91 0.363952
3259.77 0.389324
3262.64 0.393723
3265.5 0.382353
3268.36 0.358354
3271.23 0.365908
3274.09 0.367021
3276.96 0.370611
3279.82 0.393752
3282.69 0.378981
3285.55 0.372967
3288.42 0.365071
3291.28 0.380044
3294.14 0.378266
3297.01 0.393158
3299.87 0.374037
3302.74 0.375389
3305.6 0.389236
3308.47 0.395723
3311.33 0.407942
3314.2 0.370527
3317.06 0.368708
3319.93 0.394771
3322.79 0.404385
3325.65 0.376891
3328.52 0.391136
3331.38 0.390417
3334.25 0.383799
3337.11 0.399155
3339.98 0.388849
3342.84 0.367403
3345.71 0.369993
3348.57 0.388431
3351.43 0.387459
3354.3 0.398105
3357.16 0.368126
3360.03 0.369798
3362.89 0.378768
3365.76 0.397486
3368.62 0.400408
3371.49 0.376168
3374.35 0.402358
3377.21 0.375918
3380.08 0.386671
3382.94 0.368312
3385.81 0.402925
3388.67 0.389631
3391.54 0.397471
3394.4 0.400027
3397.27 0.393596
3400.13 0.421175
3402.99 0.376225
3405.86 0.367969
3408.72 0.438691
3411.59 0.406307
3414.45 0.391124
3417.32 0.379384
3420.18 0.39056
3423.05 0.391645
3425.91 0.397834
3428.77 0.423637
3431.64 0.410019
3434.5 0.390018
3437.37 0.403039
3440.23 0.417689
3443.1 0.414566
3445.96 0.414822
3448.83 0.419204
3451.69 0.396664
3454.56 0.372996
3457.42 0.379443
3460.28 0.388904
3463.15 0.404723
3466.01 0.415583
3468.88 0.375723
3471.74 0.398176
3474.61 0.422186
3477.47 0.413665
3480.34 0.386438
3483.2 0.368401
3486.06 0.41128
3488.93 0.429766
3491.79 0.389585
3494.66 0.363944
3497.52 0.381625
3500.39 0.402489
3503.25 0.412443
3506.12 0.375746
3508.98 0.366435
3511.84 0.396015
3514.71 0.378448
3517.57 0.411918
3520.44 0.391659
3523.3 0.41229
3526.17 0.423765
3529.03 0.374153
3531.9 0.411051
3534.76 0.392468
3537.62 0.382194
3540.49 0.377591
3543.35 0.391018
3546.22 0.423282
3549.08 0.399238
3551.95 0.368489
3554.81 0.415277
3557.68 0.393616
3560.54 0.377181
3563.41 0.381675
3566.27 0.359509
3569.13 0.424314
3572 0.41097
3574.86 0.408464
3577.73 0.412127
3580.59 0.394542
3583.46 0.386334
3586.32 0.410765
3589.19 0.400179
3592.05 0.393004
3594.91 0.372295
3597.78 0.386786
3600.64 0.380504
3603.51 0.402699
3606.37 0.418476
3609.24 0.433089
3612.1 0.424148
3614.97 0.399173
3617.83 0.38815
3620.69 0.414962
3623.56 0.385624
3626.42 0.345751
3629.29 0.388259
3632.15 0.397126
3635.02 0.397602
3637.88 0.388462
3640.75 0.400776
3643.61 0.39307
3646.47 0.393755
3649.34 0.389911
3652.2 0.415449
3655.07 0.411253
3657.93 0.399729
3660.8 0.376247
3663.66 0.414969
3666.53 0.386859
3669.39 0.392079
3672.26 0.438581
3675.12 0.403932
3677.98 0.410017
3680.85 0.397928
3683.71 0.371258
3686.58 0.371299
3689.44 0.402644
3692.31 0.385602
3695.17 0.415111
3698.04 0.401319
3700.9 0.397781
3703.76 0.408805
3706.63 0.415119
3709.49 0.418171
3712.36 0.434898
3715.22 0.4077
3718.09 0.38459
3720.95 0.423996
3723.82 0.408046
3726.68 0.438578
3729.54 0.424497
3732.41 0.355336
3735.27 0.386015
3738.14 0.40029
3741 0.408199
3743.87 0.407933
3746.73 0.408481
3749.6 0.435515
3752.46 0.399974
3755.32 0.390781
3758.19 0.442782
3761.05 0.433635
3763.92 0.428128
3766.78 0.404111
3769.65 0.383729
3772.51 0.397789
3775.38 0.390785
3778.24 0.378734
3781.11 0.429956
3783.97 0.414243
3786.83 0.400409
3789.7 0.405221
3792.56 0.411582
3795.43 0.406337
3798.29 0.383485
3801.16 0.391466
3804.02 0.371951
3806.89 0.388347
3809.75 0.395631
3812.61 0.439424
3815.48 0.424575
3818.34 0.415597
3821.21 0.413412
3824.07 0.396534
3826.94 0.414755
3829.8 0.416643
3832.67 0.416329
3835.53 0.390432
3838.39 0.421186
3841.26 0.415472
3844.12 0.41354
3846.99 0.417212
3849.85 0.412408
3852.72 0.406729
3855.58 0.39805
3858.45 0.428522
3861.31 0.435363
3864.17 0.378992
3867.04 0.366086
3869.9 0.403566
3872.77 0.38401
3875.63 0.414758
3878.5 0.412359
3881.36 0.444397
3884.23 0.429209
3887.09 0.4419
3889.96 0.424004
3892.82 0.404417
3895.68 0.446477
3898.55 0.421905
3901.41 0.403036
3904.28 0.403815
3907.14 0.44306
3910.01 0.422632
3912.87 0.428624
3915.74 0.406591
3918.6 0.394178
3921.46 0.40876
3924.33 0.419843
3927.19 0.442547
3930.06 0.391695
3932.92 0.404069
3935.79 0.419711
3938.65 0.449092
3941.52 0.45029
3944.38 0.43758
3947.24 0.414879
3950.11 0.375867
3952.97 0.401128
3955.84 0.398979
3958.7 0.440159
3961.57 0.408751
3964.43 0.418366
3967.3 0.392702
3970.16 0.405955
3973.02 0.437353
3975.89 0.409309
3978.75 0.402555
3981.62 0.429151
3984.48 0.41137
3987.35 0.406542
3990.21 0.424239
3993.08 0.409187
3995.94 0.42714
3998.81 0.44135
4001.67 0.386603
4004.53 0.367865
4007.4 0.404552
4010.26 0.427771
4013.13 0.42531
4015.99 0.448195
4018.86 0.39409
4021.72 0.419443
4024.59 0.418617
4027.45 0.444683
4030.31 0.438886
4033.18 0.400332
4036.04 0.440768
4038.91 0.418117
4041.77 0.430025
4044.64 0.393718
4047.5 0.419801
4050.37 0.468095
4053.23 0.392087
4056.09 0.417606
4058.96 0.412896
4061.82 0.400329
4064.69 0.455344
4067.55 0.426493
4070.42 0.404328
4073.28 0.442741
4076.15 0.449953
4079.01 0.412208
4081.88 0.384927
4084.74 0.433306
4087.6 0.423674
4090.47 0.428851
4093.33 0.426028
4096.2 0.401367
4099.06 0.421066
4101.93 0.434064
4104.79 0.468475
4107.66 0.47556
4110.52 0.447225
4113.38 0.38753
4116.25 0.402312
4119.11 0.422456
4121.98 0.448327
4124.84 0.47021
4127.71 0.429255
4130.57 0.399228
4133.44 0.471393
4136.3 0.476128
4139.16 0.419195
4142.03 0.457458
4144.89 0.406363
4147.76 0.428898
4150.62 0.430695
4153.49 0.459468
4156.35 0.502025
4159.22 0.481234
4162.08 0.451724
4164.94 0.441758
4167.81 0.44662
4170.67 0.417533
4173.54 0.485658
4176.4 0.461845
4179.27 0.424194
4182.13 0.436257
4185 0.431244
4187.86 0.463101
4190.73 0.45615
4193.59 0.471891
4196.45 0.425622
4199.32 0.44582
4202.18 0.397907
4205.05 0.423955
4207.91 0.441684
4210.78 0.484934
4213.64 0.514949
4216.5 0.451175
4219.37 0.465337
4222.23 0.456391
4225.1 0.445809
4227.96 0.462874
4230.83 0.441004
4233.69 0.419436
4236.56 0.446937
4239.42 0.430237
4242.29 0.401315
4245.15 0.437523
4248.01 0.403091
4250.88 0.454936
4253.74 0.455633
4256.61 0.453972
4259.47 0.495824
4262.34 0.449264
4265.2 0.430887
4268.07 0.429151
4270.93 0.446652
4273.79 0.450643
4276.66 0.428422
4279.52 0.499632
4282.39 0.489729
4285.25 0.487542
4288.12 0.469696
4290.98 0.451054
4293.85 0.476472
4296.71 0.475981
4299.57 0.474973
4302.44 0.508028
4305.3 0.486865
4308.17 0.465901
4311.03 0.432741
4313.9 0.43935
4316.76 0.441189
4319.63 0.473018
4322.49 0.468096
4325.36 0.460572
4328.22 0.484467
4331.08 0.49323
4333.95 0.436407
4336.81 0.440707
4339.68 0.468345
4342.54 0.467113
4345.41 0.426516
4348.27 0.454806
4351.14 0.463442
4354 0.509478
4356.86 0.494565
4359.73 0.466654
4362.59 0.501119
4365.46 0.472757
4368.32 0.465474
4371.19 0.439564
4374.05 0.4588
4376.92 0.460528
4379.78 0.455735
4382.64 0.45941
4385.51 0.468068
4388.37 0.477928
4391.24 0.452659
4394.1 0.450434
4396.97 0.475275
4399.83 0.47853
4402.7 0.466184
4405.56 0.47416
4408.43 0.500694
4411.29 0.499374
4414.15 0.485401
4417.02 0.499725
4419.88 0.45253
4422.75 0.459303
4425.61 0.43757
4428.48 0.491409
4431.34 0.487984
4434.21 0.479859
4437.07 0.513595
4439.93 0.475972
4442.8 0.495095
4445.66 0.47426
4448.53 0.475278
4451.39 0.417422
4454.26 0.469778
4457.12 0.453843
4459.99 0.46417
4462.85 0.445636
4465.71 0.482297
4468.58 0.510084
4471.44 0.484034
4474.31 0.519079
4477.17 0.476597
4480.04 0.391534
4482.9 0.474665
4485.77 0.500661
4488.63 0.490277
4491.49 0.448327
4494.36 0.455369
4497.22 0.495172
4500.09 0.492281
4502.95 0.473168
4505.82 0.445001
4508.68 0.461228
4511.55 0.45745
4514.41 0.503602
4517.27 0.518623
4520.14 0.480862
4523 0.433797
4525.87 0.474301
4528.73 0.473764
4531.6 0.47579
4534.46 0.430227
4537.33 0.456482
4540.19 0.460221
4543.06 0.494299
4545.92 0.518141
4548.78 0.514874
4551.65 0.483055
4554.51 0.450002
4557.38 0.469966
4560.24 0.474183
4563.11 0.467855
4565.97 0.480847
4568.84 0.48319
4571.7 0.511279
4574.56 0.485761
4577.43 0.523204
4580.29 0.438294
4583.16 0.475625
4586.02 0.478439
4588.89 0.529721
4591.75 0.477355
4594.62 0.437372
4597.48 0.478208
4600.34 0.474292
4603.21 0.473605
4606.07 0.430881
4608.94 0.43743
4611.8 0.474843
4614.67 0.494959
4617.53 0.452278
4620.4 0.50209
4623.26 0.474852
4626.12 0.423675
4628.99 0.504576
4631.85 0.499356
4634.72 0.4862
4637.58 0.419599
4640.45 0.409983
4643.31 0.394409
4646.18 0.458532
4649.04 0.4389
4651.91 0.478635
4654.77 0.569844
4657.63 0.513502
4660.5 0.509597
4663.36 0.41421
4666.23 0.411032
4669.09 0.467684
4671.96 0.444202
4674.82 0.387088
4677.69 0.375227
4680.55 0.43689
4683.41 0.450179
4686.28 0.438371
4689.14 0.472336
4692.01 0.414675
4694.87 0.41305
4697.74 0.476977
4700.6 0.427825
4703.47 0.487822
4706.33 0.414716
4709.19 0.485464
4712.06 0.44452
4714.92 0.428522
4717.79 0.445424
4720.65 0.433045
4723.52 0.357466
4726.38 0.426845
4729.25 0.312433
4732.11 0.385763
4734.97 0.471509
4737.84 0.409733
4740.7 0.423604
4743.57 0.476332
4746.43 0.392854
4749.3 0.444308
4752.16 0.565354
4755.03 0.52328
4757.89 0.402679
4760.76 0.355358
4763.62 0.233204
4766.48 0.31075
4769.35 0.368299
4772.21 0.267963
4775.08 0.388103
4777.94 0.407506
4780.81 0.405198
4783.67 0.527563
4786.54 0.395043
4789.4 0.458814
4792.26 0.417029
4795.13 0.234356
4797.99 0.343519
4800.86 0.388226
4803.72 0.27683
4806.59 0.0662237
4809.45 0.0441391
4812.32 0.167133
4815.18 0.212213
4818.04 0.324701
4820.91 0.319778
4823.77 0.222533
4826.64 0.507193
4829.5 0.276728
4832.37 0.0235863
4835.23 0.563406
4838.1 0.282476
4840.96 0.368929
4843.83 0.388322
4846.69 0.448475
4849.55 0.42352
4852.42 0.533882
4855.28 0.218511
4858.15 0.398119
4861.01 0.227669
4863.88 0.492818
4866.74 0.40156
4869.6 0.241986
4872.47 0.311128
4875.33 0.10196
4878.2 -0.301164
4881.06 -0.365262
4883.93 -0.123381
4886.79 0.105007
4889.66 0.0686478
4892.52 0.0851033
4895.39 0.436456
4898.25 0.864886
4901.11 0.363336
4903.98 0.562414
4906.84 0.677057
4909.71 0.0969876
4912.57 -0.180567
4915.44 -0.0154162
4918.3 0.234604
4921.17 0.0822442
4924.03 0.221846
4926.89 0.0280331
4929.76 -0.0589352
4932.62 -0.0708981
4935.49 -0.664071
4938.35 0.224923
4941.22 0.417001
4944.08 0.528914
4946.95 0.14022
4949.81 0.345575
4952.67 -0.732951
4955.54 -0.0294601
4958.4 -0.372244
4961.27 -0.894773
4964.13 0.968453
4967 0.890038
4969.86 -0.686625
4972.73 -0.146402
4975.59 0.415325
4978.46 -0.528673
4981.32 -0.127671
4984.18 0.344194
4987.05 0.95096
4989.91 0.413913
4992.78 -0.919254
4995.64 -0.298947
4998.51 -0.774065
5001.37 -1.1862
5004.24 -0.458432
5007.1 -1.68707
5009.96 -0.191573
5012.83 -0.862071
5015.69 0.719442
5018.56 0.597986
5021.42 1.58563
5024.29 -1.12222
5027.15 -1.24761
5030.02 0.382631
5032.88 0.119319
5035.75 -0.112625
5038.61 -0.540405
5041.47 -0.701579
5044.34 -1.29059
5047.2 0.942372
5050.07 -0.715977
5052.93 -0.78869
5055.8 -0.678858
5058.66 -2.63333
5061.52 -1.00979
5064.39 0.578254
5067.25 -2.22203
5070.12 -2.89026
5072.98 -3.14669
5075.85 2.00727
5078.71 2.73026
5081.58 -0.559845
5084.44 -0.644634
5087.31 -3.2091
5090.17 -1.10905
5093.03 0.424492
5095.9 10.5452
5098.76 0.756144
5101.63 1.4887
5104.49 -2.46206
5107.36 -1.40385
5110.22 4.74874
5113.09 1.5703
5115.95 1.3828
5118.81 -1.37329
5121.68 0.901495
5124.54 -0.221283
5127.41 -0.924696
5130.27 1.3713
5133.14 3.2728
5136 0.969586
5138.87 0.526412
5141.73 1.98307
5144.59 -0.122425
5147.46 4.24324
5150.32 2.8423
5153.19 0.613322
5156.05 0.00721238
5158.92 -0.0775958
5161.78 2.12091
5164.65 7.57735
5167.51 5.15789
5170.38 5.79233
5173.24 3.58408
5176.1 0.270616
5178.97 1.4169
5181.83 2.60972
5184.7 -0.730012
5187.56 -1.04822
5190.43 0.627195
5193.29 2.1765
5196.16 2.50384
5199.02 0.445407
5201.88 2.97057
5204.75 -2.00385
5207.61 0.394919
5210.48 1.40882
5213.34 3.45504
5216.21 6.33572
5219.07 7.27471
5221.94 3.54504
5224.8 3.11828
5227.66 0.359422
5230.53 4.37268
5233.39 3.2848
5236.26 1.51724
5239.12 6.18495
5241.99 0.389543
5244.85 4.70365
5247.72 4.59783
5250.58 2.84574
5253.44 1.03127
5256.31 1.33688
5259.17 0.438846
5262.04 -1.09178
5264.9 -1.02789
5267.77 1.72446
5270.63 0.362419
5273.5 0.902395
5276.36 3.26826
5279.23 2.82213
5282.09 6.14179
5284.95 4.93244
5287.82 0.434587
5290.68 0.725059
5293.55 0.32517
5296.41 1.75251
5299.28 1.23019
5302.14 -0.677816
5305.01 -0.201116
5307.87 1.15672
5310.73 3.1096
5313.6 0.431425
5316.46 1.64037
5319.33 1.28537
5322.19 -1.07426
5325.06 -0.220017
5327.92 -0.149072
5330.79 -1.07518
5333.65 1.56853
5336.51 3.08554
5339.38 3.23557
5342.24 2.01358
5345.11 -1.52264
5347.97 2.22198
5350.84 1.75032
5353.7 0.626246
5356.57 1.16994
5359.43 5.51827
5362.29 5.46854
5365.16 2.47363
5368.02 3.36995
5370.89 0.538174
5373.75 -1.18604
5376.62 -0.577368
5379.48 0.246675
5382.35 4.46766
5385.21 2.29519
5388.08 4.17854
5390.94 1.92944
5393.8 2.32775
5396.67 6.04618
5399.53 0.623462
5402.4 1.10485
5405.26 3.22901
5408.13 1.41321
5410.99 0.284784
5413.86 -0.0499245
5416.72 1.55768
5419.58 10.5115
5422.45 3.75572
5425.31 2.05477
5428.18 -0.0600862
5431.04 -0.943539
5433.91 2.01535
5436.77 0.436085
5439.64 -2.06194
5442.5 -0.978008
5445.36 -0.363703
5448.23 1.32631
5451.09 3.66726
5453.96 5.23682
5456.82 4.16313
5459.69 5.94494
5462.55 0.777614
5465.42 3.17352
5468.28 -0.258054
5471.15 1.15205
5474.01 -0.0554617
5476.87 -0.015507
5479.74 0.795502
5482.6 -0.140637
5485.47 3.29246
5488.33 8.14376
5491.2 0.0267361
5494.06 1.57512
5496.92 2.22858
5499.79 -0.10772
5502.65 0.137251
5505.52 4.79304
5508.38 0.470741
5511.25 2.13582
5514.11 6.17649
5516.98 2.80329
5519.84 1.19803
5522.71 2.60298
5525.57 1.58337
5528.43 1.02134
5531.3 1.67568
5534.16 0.52183
5537.03 1.2782
5539.89 0.629617
5542.76 0.260747
5545.62 3.21992
5548.49 0.667844
5551.35 0.343121
5554.21 1.7487
5557.08 7.00862
5559.94 2.93534
5562.81 -0.248156
5565.67 1.26315
5568.54 3.87452
5571.4 0.804096
5574.27 1.73927
5577.13 2.30379
5579.99 1.65563
5582.86 0.873103
5585.72 0.996259
5588.59 2.45945
5591.45 1.07332
5594.32 0.804505
5597.18 -0.250423
5600.05 2.90951
5602.91 0.806753
5605.78 3.76032
5608.64 -0.347602
5611.5 -0.832368
5614.37 0.283427
5617.23 3.09877
5620.1 -0.0673899
5622.96 1.10536
5625.83 0.454765
5628.69 0.264726
5631.56 2.98131
5634.42 3.1415
5637.28 3.58334
5640.15 15.9959
5643.01 2.3769
5645.88 3.74812
5648.74 0.661085
5651.61 1.06045
5654.47 0.717395
5657.34 -0.10252
5660.2 2.24774
5663.06 2.54097
5665.93 -1.46503
5668.79 -1.24576
5671.66 -1.18699
5674.52 -1.20638
5677.39 1.01512
5680.25 3.40338
5683.12 2.11147
5685.98 0.714224
5688.84 4.23598
5691.71 1.6573
5694.57 3.51417
5697.44 3.18056
5700.3 1.1798
5703.17 0.550289
5706.03 0.683639
5708.9 3.3209
5711.76 0.983111
5714.62 2.09218
5717.49 5.80136
5720.35 2.32778
5723.22 0.38784
5726.08 2.75367
5728.95 -0.673446
5731.81 -0.116674
5734.68 2.63639
5737.54 1.44672
5740.41 0.60614
5743.27 -0.318854
5746.13 1.60357
5749 3.30563
5751.86 2.39317
5754.73 -1.47848
5757.59 0.293673
5760.46 12.2313
5763.32 -0.268843
5766.19 -0.153805
5769.05 -0.0782675
5771.91 -1.20476
5774.78 -0.581592
5777.64 2.50622
5780.51 2.25091
5783.37 -1.54203
5786.24 -1.23114
5789.1 1.65434
5791.97 2.9164
5794.83 2.53572
5797.69 -1.36895
5800.56 -2.42365
5803.42 -2.1357
5806.29 -0.63336
5809.15 4.57985
5812.02 2.72818
5814.88 4.58609
5817.75 1.38349
5820.61 -1.5938
5823.48 -0.691195
5826.34 -0.423321
5829.2 9.31139
5832.07 0.538172
5834.93 2.21919
5837.8 1.36926
5840.66 -0.282873
5843.53 2.17819
5846.39 0.11865
5849.26 -1.23551
5852.12 -1.63676
5854.98 -1.89555
5857.85 -1.40343
5860.71 1.89763
5863.58 -1.42231
spectrumdark 2048
0 7256.17
2.8709 6933.93
5.74181 1883.72
8.61271 2111.66
11.4836 1519.93
14.3545 895.048
17.2254 1111.15
20.0963 1221.99
22.9672 1278.16
25.8381 1475.07
28.709 1924.3
31.5799 2431.83
34.4509 2729.37
37.3218 2404.82
40.1927 2766.22
43.0636 3091.81
45.9345 2862.78
48.8054 3385.93
51.6763 3259.87
54.5472 2912.26
57.4181 2843.42
60.289 2524.86
63.1599 2791.57
66.0308 2401.99
68.9017 1861.45
71.7726 2101.5
74.6435 1858.29
77.5144 1861.27
80.3853 2808.26
83.2562 2741.14
86.1271 2862.52
88.998 3789.85
91.8689 4063.87
94.7398 3738.47
97.6107 4211.55
100.482 5116.92
103.353 3910.44
106.223 4506.01
109.094 3798.76
111.965 4079.27
114.836 3063.73
117.707 2675.44
120.578 3247.93
123.449 3166.4
126.32 2815.78
129.191 3642.68
132.062 3867.88
134.932 3721.92
137.803 2913.1
140.674 3444.23
143.545 3547.63
146.416 2744.85
149.287 3341.89
152.158 4012.3
155.029 4207.13
157.9 3452.48
160.771 3009.72
163.642 3442.85
166.512 2387.21
169.383 4192.08
172.254 2802.74
175.125 2220.8
177.996 2913.15
180.867 2486.48
183.738 2715.12
186.609 3626.39
189.48 3087.73
192.351 3422.88
195.221 3326.2
198.092 3113.74
200.963 3291.7
203.834 2538.2
206.705 1747.13
209.576 2202.08
212.447 2723.93
215.318 2928.23
218.189 2942.89
221.06 2935.27
223.931 3841.98
226.801 3039.33
229.672 3141.47
232.543 2996.01
235.414 3166.84
238.285 2823.16
241.156 3031.7
244.027 3662.05
246.898 3660.55
249.769 3602.34
252.64 3361.27
255.51 2438.75
258.381 2441.86
261.252 2707.21
264.123 2570.69
266.994 2949.69
269.865 2609.75
272.736 3035.71
275.607 2743.05
278.478 2874.75
281.349 3480.68
284.22 2665.21
287.09 2385.22
289.961 2117.31
292.832 2074.07
295.703 2324.32
298.574 2660.88
301.445 2117.54
304.316 1867.77
307.187 2211.57
310.058 2002.78
312.929 2795.06
315.799 2951.89
318.67 2137.11
321.541 2277.4
324.412 2389.19
327.283 2308
330.154 1835.78
333.025 1880.98
335.896 2741.35
338.767 2926.9
341.638 2469.07
344.509 2732.18
347.379 2409.42
350.25 2548.59
353.121 2466.07
355.992 2394.81
358.863 2595.68
361.734 2823.62
364.605 2166.53
367.476 1714.63
370.347 2351.35
373.218 2972.65
376.088 2443.91
378.959 2991.62
381.83 2959.57
384.701 2148.23
387.572 2319.86
390.443 2914.87
393.314 2324.16
396.185 2382.92
399.056 2678.36
401.927 2664.57
404.798 2830.41
407.668 2519.54
410.539 1999.42
413.41 2302.44
416.281 2954.49
419.152 2482.85
422.023 1737.36
424.894 2182.42
427.765 2644.92
430.636 2090.15
433.507 2605.35
436.378 2568.03
439.248 2196.12
442.119 1956.98
444.99 1775.07
447.861 1987.15
450.732 1841.79
453.603 2011.8
456.474 1744.88
459.345 1946.69
462.216 2081.02
465.087 2015.4
467.957 2461.5
470.828 2078.12
473.699 1646.57
476.57 2197.97
479.441 2363.26
482.312 2707.73
485.183 2310.68
488.054 1677.97
490.925 2278.21
493.796 2053.56
496.666 2020.77
499.537 2188.73
502.408 2186.58
505.279 2360.88
508.15 1987.33
511.021 1801.69
513.892 1989.03
516.763 1970.85
519.634 1856.02
522.505 2088.88
525.376 1876.41
528.246 2033.54
531.117 2097.31
533.988 2153.18
536.859 1952.4
539.73 1806
542.601 1755.16
545.472 2204.41
548.343 1868.34
551.214 1901.2
554.085 2150.95
556.955 1838.66
559.826 1794.83
562.697 1291.57
565.568 2343.93
568.439 2124.96
571.31 2057
574.181 2721.74
577.052 1685.84
579.923 1571.93
582.794 2313.14
585.664 2521.18
588.535 3205.87
591.406 3373.44
594.277 3505.5
597.148 3449.57
600.019 3961.59
602.89 5155.68
605.761 5310.64
608.632 6471.42
611.503 6666.33
614.374 7074.38
617.244 8119.93
620.115 9768.34
622.986 11280.7
625.857 12939.6
628.728 15079.2
631.599 17099.8
634.47 18235.4
637.341 20677
640.212 22509
643.083 24360.6
645.953 26043.9
648.824 28072
651.695 30753.4
654.566 33044.6
657.437 35007.6
660.308 37479.5
663.179 39906.8
666.05 41397.3
668.921 39570.6
671.792 45838.1
674.663 48962.2
677.533 51240.9
680.404 53923.6
683.275 55625.9
686.146 57979.2
689.017 61301.3
691.888 63503.5
694.759 66537.4
697.63 68343.2
700.501 70352.8
703.372 73477.9
706.242 76287
709.113 79250.4
711.984 81688.8
714.855 84191.6
717.726 86946
720.597 90189
723.468 93287.8
726.339 96952.8
729.21 99919.8
732.081 103018
734.952 106262
737.822 109951
740.693 113900
743.564 117607
746.435 120583
749.306 124981
752.177 127573
755.048 131720
757.919 135451
760.79 139899
763.661 144428
766.531 147509
769.402 152348
772.273 156270
775.144 159950
778.015 164658
780.886 169080
783.757 172974
786.628 176872
789.499 179395
792.37 182480
795.24 186066
798.111 190161
800.982 194504
803.853 199379
806.724 203879
809.595 209020
812.466 214337
815.337 219549
818.208 224324
821.079 228969
823.95 233689
826.82 237845
829.691 243195
832.562 247545
835.433 252263
838.304 256663
841.175 260288
844.046 264191
846.917 268402
849.788 272420
852.659 277211
855.53 280631
858.4 284787
861.271 288948
864.142 292302
867.013 297495
869.884 301589
872.755 305372
875.626 309534
878.497 313562
881.368 318223
884.239 322560
887.109 327651
889.98 333037
892.851 337224
895.722 342210
898.593 347338
901.464 352271
904.335 357733
907.206 362865
910.077 368330
912.948 374313
915.819 379134
918.689 385144
921.56 390975
924.431 396724
927.302 402316
930.173 408334
933.044 415068
935.915 422243
938.786 429152
941.657 437154
944.528 444247
947.398 451740
950.269 460530
953.14 468939
956.011 478584
958.882 488780
961.753 499167
964.624 509874
967.495 521109
970.366 533624
973.237 546297
976.107 558281
978.978 571946
981.849 583858
984.72 595652
987.591 606359
990.462 616899
993.333 625528
996.204 632690
999.075 637588
1001.95 640679
1004.82 639914
1007.69 638015
1010.56 633246
1013.43 625932
1016.3 618313
1019.17 608967
1022.04 599834
1024.91 591102
1027.78 580953
1030.65 569958
1033.53 558989
1036.4 546658
1039.27 534443
1042.14 521940
1045.01 509801
1047.88 497757
1050.75 484929
1053.62 472399
1056.49 459332
1059.36 446834
1062.23 434814
1065.11 422045
1067.98 409493
1070.85 397234
1073.72 384839
1076.59 373672
1079.46 363099
1082.33 353619
1085.2 345085
1088.07 337659
1090.94 330708
1093.81 324782
1096.69 320318
1099.56 317586
1102.43 314873
1105.3 312385
1108.17 310449
1111.04 308811
1113.91 308331
1116.78 307877
1119.65 308097
1122.52 307309
1125.39 307049
1128.27 307014
1131.14 306930
1134.01 306848
1136.88 307344
1139.75 307287
1142.62 306694
1145.49 306046
1148.36 305561
1151.23 304515
1154.1 303560
1156.97 302158
1159.85 300357
1162.72 298544
1165.59 296339
1168.46 294683
1171.33 292302
1174.2 289933
1177.07 287362
1179.94 284550
1182.81 281287
1185.68 277948
1188.55 275212
1191.43 272604
1194.3 269869
1197.17 266953
1200.04 264134
1202.91 261559
1205.78 259658
1208.65 257929
1211.52 256609
1214.39 255150
1217.26 254961
1220.13 254907
1223.01 256533
1225.88 258255
1228.75 260708
1231.62 264037
1234.49 268323
1237.36 273187
1240.23 278471
1243.1 284338
1245.97 290015
1248.84 296192
1251.71 301070
1254.59 304224
1257.46 306415
1260.33 307009
1263.2 307154
1266.07 308338
1268.94 309468
1271.81 310488
1274.68 310792
1277.55 311358
1280.42 311267
1283.29 311151
1286.17 310520
1289.04 309470
1291.91 308776
1294.78 308653
1297.65 307712
1300.52 306937
1303.39 305930
1306.26 305517
1309.13 304402
1312 303290
1314.87 302023
1317.75 301174
1320.62 299640
1323.49 299560
1326.36 299254
1329.23 299358
1332.1 298748
1334.97 297988
1337.84 295653
1340.71 291790
1343.58 292327
1346.45 295431
1349.33 294845
1352.2 293891
1355.07 292961
1357.94 291536
1360.81 289965
1363.68 284790
1366.55 284881
1369.42 289021
1372.29 287182
1375.16 283737
1378.03 282393
1380.91 286290
1383.78 286310
1386.65 284893
1389.52 276989
1392.39 281242
1395.26 277814
1398.13 270804
1401 273466
1403.87 278839
1406.74 277833
1409.61 279580
1412.48 280328
1415.36 278487
1418.23 272881
1421.1 256039
1423.97 267257
1426.84 272944
1429.71 275288
1432.58 270246
1435.45 271217
1438.32 255956
1441.19 263487
1444.06 274476
1446.94 273198
1449.81 266559
1452.68 267884
1455.55 263174
1458.42 238402
1461.29 241165
1464.16 266550
1467.03 258545
1469.9 264331
1472.77 260058
1475.64 242485
1478.52 258432
1481.39 268960
1484.26 269591
1487.13 269336
1490 258581
1492.87 252010
1495.74 262082
1498.61 248794
1501.48 252047
1504.35 257801
1507.22 238776
1510.1 215779
1512.97 248931
1515.84 252354
1518.71 243946
1521.58 237851
1524.45 224049
1527.32 242889
1530.19 248020
1533.06 254685
1535.93 241412
1538.8 243579
1541.68 213164
1544.55 214910
1547.42 237529
1550.29 251442
1553.16 247902
1556.03 239474
1558.9 223338
1561.77 193388
1564.64 235348
1567.51 247773
1570.38 246229
1573.26 237003
1576.13 246223
1579 224643
1581.87 247226
1584.74 250819
1587.61 250532
1590.48 249134
1593.35 246478
1596.22 244426
1599.09 241575
1601.96 239375
1604.84 235006
1607.71 230637
1610.58 225226
1613.45 220159
1616.32 214017
1619.19 194060
1622.06 202964
1624.93 202290
1627.8 200950
1630.67 205284
1633.54 207974
1636.42 201937
1639.29 190807
1642.16 215071
1645.03 217542
1647.9 207804
1650.77 199421
1653.64 204844
1656.51 179069
1659.38 226210
1662.25 233875
1665.12 228448
1668 232859
1670.87 228444
1673.74 222193
1676.61 229696
1679.48 226719
1682.35 234450
1685.22 222882
1688.09 205427
1690.96 236588
1693.83 235645
1696.7 230399
1699.58 205249
1702.45 205400
1705.32 217063
1708.19 229259
1711.06 235957
1713.93 236894
1716.8 227279
1719.67 211903
1722.54 221581
1725.41 238081
1728.28 237702
1731.16 234551
1734.03 224974
1736.9 204853
1739.77 223493
1742.64 224291
1745.51 230074
1748.38 230782
1751.25 226098
1754.12 221154
1756.99 232440
1759.86 230369
1762.74 232408
1765.61 227038
1768.48 233423
1771.35 223467
1774.22 217795
1777.09 217928
1779.96 229079
1782.83 227144
1785.7 226659
1788.57 224810
1791.44 225071
1794.32 216176
1797.19 215613
1800.06 222175
1802.93 218629
1805.8 218578
1808.67 219760
1811.54 217210
1814.41 213393
1817.28 211973
1820.15 205938
1823.02 199967
1825.9 196722
1828.77 190621
1831.64 190051
1834.51 187493
1837.38 190560
1840.25 187991
1843.12 184191
1845.99 178171
1848.86 174813
1851.73 179445
1854.6 178714
1857.48 176999
1860.35 174981
1863.22 172944
1866.09 170851
1868.96 167216
1871.83 163136
1874.7 164236
1877.57 164802
1880.44 163177
1883.31 161333
1886.18 159778
1889.06 157150
1891.93 154731
1894.8 153030
1897.67 152061
1900.54 150759
1903.41 149429
1906.28 147389
1909.15 145360
1912.02 143414
1914.89 141586
1917.76 139199
1920.64 136265
1923.51 135246
1926.38 133941
1929.25 132285
1932.12 129386
1934.99 126692
1937.86 124171
1940.73 121317
1943.6 118514
1946.47 115344
1949.34 114179
1952.21 112091
1955.09 109635
1957.96 107635
1960.83 105146
1963.7 101436
1966.57 99034.1
1969.44 96836.1
1972.31 95179
1975.18 93643.4
1978.05 91857.5
1980.92 90471.2
1983.79 92395.4
1986.67 95548.4
1989.54 97025.3
1992.41 97821.7
1995.28 98495.7
1998.15 99323.7
2001.02 99675.1
2003.89 99164.9
2006.76 97685.9
2009.63 95220.9
2012.5 93380.1
2015.37 92738.9
2018.25 92033.5
2021.12 91658.7
2023.99 91521.4
2026.86 91276.2
2029.73 90888.1
2032.6 90884
2035.47 90724.4
2038.34 91085.7
2041.21 92400
2044.08 94544.1
2046.95 96755.1
2049.83 98380.9
2052.7 100580
2055.57 106176
2058.44 109423
2061.31 111911
2064.18 113377
2067.05 115023
2069.92 116427
2072.79 118284
2075.66 119820
2078.53 121692
2081.41 123921
2084.28 126323
2087.15 128324
2090.02 130031
2092.89 130780
2095.76 130975
2098.63 129457
2101.5 128865
2104.37 129479
2107.24 130103
2110.11 130748
2112.99 131380
2115.86 132461
2118.73 133315
2121.6 133696
2124.47 132970
2127.34 131187
2130.21 128532
2133.08 124875
2135.95 119976
2138.82 114037
2141.69 109775
2144.57 106331
2147.44 103100
2150.31 99913.9
2153.18 96883.4
2156.05 93985.3
2158.92 90237.5
2161.79 84923.7
2164.66 82282.2
2167.53 84879.9
2170.4 87496.7
2173.27 90075.6
2176.15 91543.5
2179.02 91850.6
2181.89 92240.2
2184.76 92263.3
2187.63 92918.1
2190.5 94371.8
2193.37 95707.2
2196.24 97124.8
2199.11 98450.2
2201.98 99366.8
2204.85 100385
2207.73 101587
2210.6 102417
2213.47 103525
2216.34 104187
2219.21 105247
2222.08 106003
2224.95 107053
2227.82 108212
2230.69 109467
2233.56 110600
2236.43 111887
2239.31 113338
2242.18 114894
2245.05 116578
2247.92 118157
2250.79 119741
2253.66 121181
2256.53 122374
2259.4 123418
2262.27 125623
2265.14 128040
2268.01 129757
2270.89 131824
2273.76 134247
2276.63 137284
2279.5 140408
2282.37 144047
2285.24 148462
2288.11 153510
2290.98 159322
2293.85 165304
2296.72 171024
2299.59 175797
2302.47 179656
2305.34 183219
2308.21 186195
2311.08 188893
2313.95 191158
2316.82 193061
2319.69 194992
2322.56 197055
2325.43 200059
2328.3 206964
2331.17 213808
2334.05 211719
2336.92 208795
2339.79 206787
2342.66 206405
2345.53 207991
2348.4 212740
2351.27 220411
2354.14 223540
2357.01 209790
2359.88 195767
2362.75 186615
2365.63 182189
2368.5 181313
2371.37 183720
2374.24 188234
2377.11 193850
2379.98 199290
2382.85 203131
2385.72 204210
2388.59 203075
2391.46 201241
2394.33 198244
2397.21 195182
2400.08 192167
2402.95 189450
2405.82 186452
2408.69 183718
2411.56 180983
2414.43 179105
2417.3 177374
2420.17 175647
2423.04 173961
2425.91 172402
2428.79 170633
2431.66 169285
2434.53 167966
2437.4 166630
2440.27 165934
2443.14 165069
2446.01 164216
2448.88 163558
2451.75 162985
2454.62 162666
2457.49 162714
2460.36 162897
2463.24 162814
2466.11 162678
2468.98 161731
2471.85 160956
2474.72 160209
2477.59 159514
2480.46 158786
2483.33 157889
2486.2 156892
2489.07 156186
2491.95 155442
2494.82 154920
2497.69 154354
2500.56 153901
2503.43 153431
2506.3 152770
2509.17 152178
2512.04 151590
2514.91 151158
2517.78 150683
2520.65 150251
2523.53 149568
2526.4 149271
2529.27 148837
2532.14 148379
2535.01 148333
2537.88 148047
2540.75 147839
2543.62 147765
2546.49 147702
2549.36 147633
2552.23 147582
2555.1 147535
2557.98 147546
2560.85 147980
2563.72 148066
2566.59 148200
2569.46 148865
2572.33 149196
2575.2 149822
2578.07 150380
2580.94 150833
2583.81 151523
2586.68 152604
2589.56 153667
2592.43 154553
2595.3 155985
2598.17 157178
2601.04 158351
2603.91 159897
2606.78 161520
2609.65 163248
2612.52 165159
2615.39 167316
2618.26 169458
2621.14 171943
2624.01 174635
2626.88 177062
2629.75 179833
2632.62 182968
2635.49 186192
2638.36 189546
2641.23 192883
2644.1 196429
2646.97 200203
2649.84 204137
2652.72 207796
2655.59 211691
2658.46 215367
2661.33 219082
2664.2 222216
2667.07 224368
2669.94 225458
2672.81 225400
2675.68 225017
2678.55 224194
2681.42 223502
2684.3 222721
2687.17 222086
2690.04 221528
2692.91 220969
2695.78 220168
2698.65 219394
2701.52 218692
2704.39 217930
2707.26 217253
2710.13 216567
2713 215703
2715.88 214900
2718.75 214414
2721.62 213741
2724.49 213091
2727.36 212256
2730.23 211714
2733.1 211002
2735.97 210425
2738.84 209707
2741.71 208780
2744.58 208226
2747.46 207704
2750.33 207026
2753.2 206226
2756.07 205620
2758.94 204773
2761.81 204253
2764.68 203649
2767.55 202962
2770.42 202213
2773.29 201638
2776.16 201089
2779.04 200380
2781.91 200053
2784.78 199250
2787.65 198562
2790.52 197932
2793.39 197186
2796.26 196561
2799.13 196185
2802 195165
2804.87 194758
2807.74 194202
2810.62 193383
2813.49 193000
2816.36 192174
2819.23 191575
2822.1 191028
2824.97 190424
2827.84 189708
2830.71 189100
2833.58 188333
2836.45 187694
2839.32 187044
2842.2 186161
2845.07 185472
2847.94 184709
2850.81 183881
2853.68 182990
2856.55 181895
2859.42 181121
2862.29 180428
2865.16 179977
2868.03 179628
2870.9 179015
2873.78 178560
2876.65 177862
2879.52 177376
2882.39 176947
2885.26 176457
2888.13 175974
2891 175250
2893.87 174567
2896.74 173597
2899.61 172903
2902.48 172234
2905.36 171780
2908.23 170966
2911.1 170137
2913.97 169269
2916.84 168367
2919.71 167489
2922.58 166618
2925.45 165722
2928.32 164773
2931.19 163983
2934.06 163112
2936.94 162836
2939.81 162581
2942.68 162176
2945.55 161842
2948.42 161419
2951.29 161156
2954.16 160718
2957.03 160148
2959.9 159591
2962.77 158978
2965.64 158235
2968.52 157844
2971.39 157290
2974.26 157050
2977.13 156969
2980 156833
2982.87 156794
2985.74 156288
2988.61 156129
2991.48 155572
2994.35 155139
2997.22 154492
3000.1 154274
3002.97 153844
3005.84 153566
3008.71 152959
3011.58 152430
3014.45 151715
3017.32 150867
3020.19 150317
3023.06 150081
3025.93 149775
3028.8 149087
3031.68 148580
3034.55 148083
3037.42 147225
3040.29 146756
3043.16 146238
3046.03 145715
3048.9 145362
3051.77 144802
3054.64 144097
3057.51 143751
3060.38 143179
3063.26 142765
3066.13 142127
3069 141456
3071.87 140928
3074.74 140706
3077.61 140235
3080.48 139554
3083.35 138767
3086.22 138170
3089.09 137873
3091.96 137573
3094.83 136924
3097.71 136382
3100.58 135663
3103.45 134917
3106.32 134485
3109.19 134149
3112.06 133602
3114.93 133025
3117.8 132478
3120.67 131603
3123.54 131197
3126.41 130835
3129.29 130375
3132.16 129741
3135.03 129313
3137.9 128675
3140.77 128156
3143.64 127529
3146.51 126959
3149.38 126839
3152.25 126151
3155.12 125438
3157.99 124802
3160.87 124502
3163.74 123972
3166.61 123509
3169.48 122767
3172.35 122075
3175.22 121517
3178.09 121129
3180.96 120506
3183.83 119868
3186.7 119464
3189.57 119056
3192.45 118539
3195.32 117961
3198.19 117455
3201.06 116828
3203.93 116199
3206.8 115730
3209.67 115486
3212.54 115039
3215.41 114516
3218.28 114211
3221.15 113589
3224.03 113121
3226.9 112767
3229.77 112589
3232.64 112239
3235.51 111945
3238.38 111454
3241.25 111236
3244.12 110962
3246.99 110725
3249.86 110244
3252.73 110129
3255.61 110045
3258.48 109510
3261.35 109244
3264.22 108919
3267.09 108848
3269.96 108605
3272.83 108021
3275.7 107772
3278.57 107491
3281.44 107334
3284.31 107230
3287.19 106925
3290.06 106443
3292.93 106336
3295.8 105766
3298.67 105297
3301.54 105085
3304.41 104614
3307.28 104306
3310.15 103667
3313.02 103270
3315.89 102985
3318.77 102674
3321.64 102160
3324.51 102020
3327.38 101381
3330.25 100596
3333.12 100009
3335.99 99754.7
3338.86 99346.3
3341.73 98511.8
3344.6 98242
3347.47 97700.9
3350.35 97052.7
3353.22 96610
3356.09 96129
3358.96 95604.7
3361.83 94913.3
3364.7 94348.4
3367.57 93694.2
3370.44 93293.9
3373.31 92551.7
3376.18 92161.6
3379.05 91780.9
3381.93 91178.9
3384.8 90460.3
3387.67 90001.6
3390.54 89359.9
3393.41 88799.8
3396.28 88234.1
3399.15 87504.6
3402.02 87194.1
3404.89 86399.9
3407.76 85923.2
3410.63 85608.2
3413.51 84960.1
3416.38 84456.6
3419.25 83762
3422.12 83234.4
3424.99 82661.1
3427.86 81822.2
3430.73 81581.2
3433.6 81099.7
3436.47 80521.4
3439.34 79788.6
3442.21 79543
3445.09 79252.9
3447.96 78481.1
3450.83 77885
3453.7 77240.7
3456.57 77107
3459.44 76579.8
3462.31 76049.1
3465.18 75518.6
3468.05 75137.6
3470.92 74616
3473.79 74014.3
3476.67 73805.4
3479.54 73444.4
3482.41 72976.7
3485.28 72738.9
3488.15 71883.5
3491.02 71664.4
3493.89 71256.4
3496.76 71066.2
3499.63 70590.7
3502.5 69953.2
3505.37 69778.1
3508.25 68968
3511.12 68620.4
3513.99 68724.1
3516.86 68168.8
3519.73 68372.5
3522.6 68214.8
3525.47 67866.9
3528.34 67378.9
3531.21 66841.2
3534.08 66853.7
3536.95 66836.1
3539.83 67015.9
3542.7 66828
3545.57 66785.9
3548.44 66682.3
3551.31 65828.4
3554.18 65684.8
3557.05 66229.4
3559.92 66023.6
3562.79 66608.3
3565.66 66179.6
3568.53 66105.9
3571.41 65358.8
3574.28 63206.7
3577.15 65891.9
3580.02 66957.4
3582.89 66966
3585.76 66937.9
3588.63 67110.1
3591.5 66449.2
3594.37 64068.1
3597.24 66592.1
3600.11 67346.7
3602.98 67252.2
3605.86 68057.3
3608.73 68463
3611.6 69350.7
3614.47 67247.1
3617.34 67331.8
3620.21 67843.4
3623.08 69502.5
3625.95 67352
3628.82 70039.1
3631.69 71873.5
3634.56 67127.6
3637.44 66853.1
3640.31 72271.8
3643.18 73483.3
3646.05 73777.9
3648.92 73562.6
3651.79 72923.5
3654.66 67266.9
3657.53 65817.7
3660.4 72528.3
3663.27 70748.1
3666.15 73810.3
3669.02 74147.6
3671.89 74177.3
3674.76 71287.1
3677.63 66061.5
3680.5 68225.5
3683.37 64639.3
3686.24 71271.7
3689.11 72814.4
3691.98 72994
3694.85 67221.1
3697.72 67553.3
3700.6 72135.8
3703.47 73418.3
3706.34 73142.6
3709.21 70801.8
3712.08 72583.2
3714.95 71540.9
3717.82 67390.9
3720.69 68498.5
3723.56 72286.9
3726.43 71688.9
3729.3 70396.3
3732.18 69730.6
3735.05 70170.7
3737.92 68739.5
3740.79 65046.8
3743.66 63732.7
3746.53 68435.6
3749.4 66631.1
3752.27 59409.7
3755.14 64692.9
3758.01 60631
3760.88 66206.9
3763.76 70274.7
3766.63 69336.8
3769.5 71462
3772.37 70720.7
3775.24 70396.6
3778.11 69783.8
3780.98 72433.3
3783.85 72195.3
3786.72 70378.1
3789.59 71867.2
3792.46 71558
3795.34 71917.8
3798.21 71747.4
3801.08 71060
3803.95 68744.6
3806.82 67169.7
3809.69 63941.8
3812.56 67302.5
3815.43 66258.6
3818.3 70153.4
3821.17 68026.4
3824.04 63693.5
3826.92 65281.6
3829.79 64078.2
3832.66 68072.4
3835.53 67946.1
3838.4 66668.9
3841.27 65713.7
3844.14 61905.6
3847.01 62523.2
3849.88 65261.8
3852.75 66569.5
3855.62 67384.1
3858.5 61930.3
3861.37 53640.8
3864.24 63332.4
3867.11 65754.1
3869.98 64083.2
3872.85 62979.3
3875.72 62458.6
3878.59 61206.7
3881.46 63366
3884.33 65100.4
3887.2 62774.2
3890.08 63503
3892.95 60986
3895.82 63625.2
3898.69 61511.7
3901.56 63508.3
3904.43 63144.4
3907.3 60020.4
3910.17 59043.6
3913.04 60582
3915.91 63417.2
3918.78 63429.2
3921.66 62978.2
3924.53 61153.6
3927.4 61509.8
3930.27 61675.1
3933.14 61213.3
3936.01 61575
3938.88 60388.4
3941.75 60799.1
3944.62 61225.4
3947.49 60815
3950.36 59937.1
3953.24 60182
3956.11 59624.8
3958.98 59675.2
3961.85 59754.3
3964.72 59355.6
3967.59 59318.5
3970.46 58925.3
3973.33 58729.3
3976.2 58490.1
3979.07 58294.9
3981.94 57996.3
3984.82 57917
3987.69 57677.8
3990.56 57343.9
3993.43 57178.3
3996.3 57016.8
3999.17 56638.5
4002.04 56369.5
4004.91 56259
4007.78 55991.1
4010.65 55762.6
4013.52 55466.1
4016.4 55113.3
4019.27 54939.9
4022.14 54920
4025.01 54718.8
4027.88 54455.8
4030.75 54101.7
4033.62 53780.7
4036.49 53763.3
4039.36 53536.6
4042.23 53218.7
4045.1 53285.5
4047.98 53014.5
4050.85 52699.7
4053.72 52456.9
4056.59 52338.7
4059.46 52287.3
4062.33 51924
4065.2 51728.1
4068.07 51630.4
4070.94 51479.8
4073.81 51332.9
4076.68 51250.8
4079.56 50894
4082.43 50761.8
4085.3 50642.2
4088.17 50426.5
4091.04 50196.6
4093.91 50176.1
4096.78 50018.7
4099.65 49901.4
4102.52 49586.6
4105.39 49502.2
4108.26 49474.1
4111.14 49355.3
4114.01 49059.8
4116.88 48959
4119.75 48885.8
4122.62 48569.9
4125.49 48423.2
4128.36 48400.3
4131.23 48421.3
4134.1 48401.4
4136.97 48131.4
4139.84 47941
4142.72 47917.9
4145.59 47773.1
4148.46 47544.1
4151.33 47577
4154.2 47448.5
4157.07 47212.9
4159.94 47262.7
4162.81 47184.4
4165.68 46990.1
4168.55 46939.7
4171.42 46914.8
4174.3 46758.4
4177.17 46725.3
4180.04 46673.3
4182.91 46676.4
4185.78 46483.1
4188.65 46341.3
4191.52 46255.5
4194.39 46110.8
4197.26 46154.1
4200.13 46174.4
4203 46051.7
4205.87 45965.4
4208.75 45967.2
4211.62 45707.5
4214.49 45882.4
4217.36 45810.8
4220.23 45702.7
4223.1 45717.9
4225.97 45441.4
4228.84 45449.9
4231.71 45523.8
4234.58 45518.3
4237.45 45498.2
4240.33 45477.2
4243.2 45428.9
4246.07 45254.8
4248.94 45186.3
4251.81 45209
4254.68 45226.5
4257.55 45068.2
4260.42 45134.2
4263.29 45135.1
4266.16 45064.5
4269.03 45096.9
4271.91 45063.8
4274.78 44843.4
4277.65 44999.2
4280.52 44879.7
4283.39 44866.9
4286.26 44844.1
4289.13 45021.8
4292 45028.3
4294.87 45029.5
4297.74 44942.7
4300.61 44867.3
4303.49 44741.4
4306.36 44716.4
4309.23 44541.6
4312.1 44512.2
4314.97 44764.8
4317.84 44800.8
4320.71 44579.9
4323.58 44654.3
4326.45 44611
4329.32 44686.3
4332.19 44660.1
4335.07 44439.7
4337.94 44346.8
4340.81 44451.1
4343.68 44466.8
4346.55 44347
4349.42 44419.5
4352.29 44329.4
4355.16 44300.9
4358.03 44252.2
4360.9 44218.8
4363.77 44300.2
4366.65 44432.9
4369.52 44409
4372.39 44191.1
4375.26 44211.9
4378.13 44083.8
4381 43963.4
4383.87 43786.8
4386.74 43742.2
4389.61 43703.8
4392.48 43762.8
4395.35 43815.7
4398.23 43667.2
4401.1 43567.1
4403.97 43591.4
4406.84 43621.5
4409.71 43555.3
4412.58 43473.5
4415.45 43374.3
4418.32 43352.8
4421.19 43303.5
4424.06 43059.5
4426.93 43070.7
4429.81 42995.1
4432.68 43006.7
4435.55 42780.8
4438.42 42750.4
4441.29 42658.1
4444.16 42606.2
4447.03 42471
4449.9 42379.5
4452.77 42320.8
4455.64 42070.8
4458.51 42044.3
4461.39 41763
4464.26 41730.8
4467.13 41621.1
4470 41564.1
4472.87 41167.8
4475.74 41239
4478.61 41198.6
4481.48 40963.7
4484.35 40725.9
4487.22 40619.4
4490.09 40382.1
4492.97 40209.1
4495.84 40040.4
4498.71 39869.8
4501.58 39785.8
4504.45 39829.8
4507.32 39513.8
4510.19 39180.9
4513.06 39019.1
4515.93 38812.3
4518.8 38707.9
4521.67 38574.8
4524.55 38232.8
4527.42 37969
4530.29 37785.8
4533.16 37590.4
4536.03 37310
4538.9 37052.2
4541.77 36855.5
4544.64 36597.3
4547.51 36357.9
4550.38 36214.6
4553.25 35920.7
4556.13 35653.5
4559 35448
4561.87 35080.6
4564.74 34872.3
4567.61 34661.4
4570.48 34335.5
4573.35 34084.7
4576.22 33802.2
4579.09 33492.8
4581.96 33116.2
4584.83 32881
4587.71 32625.6
4590.58 32491.1
4593.45 32145
4596.32 31729.3
4599.19 31446.3
4602.06 31034.7
4604.93 30754.8
4607.8 30501.3
4610.67 30252
4613.54 29815.7
4616.41 29550
4619.29 29156.6
4622.16 28890.2
4625.03 28759.5
4627.9 28439.9
4630.77 27940.6
4633.64 27576.1
4636.51 27274.7
4639.38 26922.2
4642.25 26740.7
4645.12 26499.1
4647.99 25995.7
4650.87 25715.3
4653.74 25444
4656.61 24974.2
4659.48 24604.7
4662.35 24321.1
4665.22 23966.6
4668.09 23587.3
4670.96 23283.3
4673.83 22919
4676.7 22753.2
4679.57 22485.2
4682.45 22107
4685.32 21593.8
4688.19 21285
4691.06 21020.3
4693.93 20819.9
4696.8 20416.9
4699.67 20127.3
4702.54 19758.6
4705.41 19338
4708.28 18902.4
4711.15 18468.1
4714.03 18279.4
4716.9 18069.4
4719.77 17765.7
4722.64 17495.1
4725.51 17199.4
4728.38 16735.3
4731.25 16516.5
4734.12 16317.4
4736.99 15948.6
4739.86 15675.2
4742.73 15347
4745.6 14977.6
4748.48 14727.6
4751.35 14466.6
4754.22 14270.7
4757.09 13856.1
4759.96 13662.2
4762.83 13444.9
4765.7 13048.1
4768.57 12669.4
4771.44 12507.9
4774.31 12287.5
4777.18 11926.2
4780.06 11621.3
4782.93 11328.2
4785.8 11244.3
4788.67 10861.2
4791.54 10598
4794.41 10443.1
4797.28 10081
4800.15 9894.51
4803.02 9597.18
4805.89 9423.89
4808.76 9233.17
4811.64 8976.22
4814.51 8760.29
4817.38 8474.45
4820.25 8332.4
4823.12 8292.63
4825.99 7987.27
4828.86 7819.68
4831.73 7517.99
4834.6 7283.37
4837.47 7215.69
4840.34 6992.28
4843.22 6854.76
4846.09 6675.72
4848.96 6480.54
4851.83 6350.81
4854.7 6140
4857.57 5923.52
4860.44 5549.98
4863.31 5633.71
4866.18 5472.18
4869.05 5441.95
4871.92 5270.9
4874.8 4918.84
4877.67 5004.35
4880.54 4791.23
4883.41 4666.44
4886.28 4459.91
4889.15 4319.51
4892.02 4158.06
4894.89 4087.36
4897.76 4046.21
4900.63 3995.75
4903.5 3754.07
4906.38 3580.64
4909.25 3623.74
4912.12 3588.4
4914.99 3356.09
4917.86 3419.46
4920.73 3163.9
4923.6 2976.63
4926.47 2883.89
4929.34 2861.66
4932.21 2915.63
4935.08 2650.54
4937.96 2489.97
4940.83 2474.86
4943.7 2537.16
4946.57 2369.3
4949.44 2351.04
4952.31 2349.92
4955.18 2291.3
4958.05 2089.09
4960.92 2062.52
4963.79 1883.5
4966.67 2007.96
4969.54 1902.65
4972.41 1737.79
4975.28 1685.66
4978.15 1610.12
4981.02 1602.2
4983.89 1582.26
4986.76 1610.96
4989.63 1485.63
4992.5 1454.18
4995.37 1312.26
4998.24 1339.95
5001.12 1408.84
5003.99 1205.21
5006.86 1251.97
5009.73 1153.6
5012.6 993.418
5015.47 1112.1
5018.34 1044.26
5021.21 1174.49
5024.08 1039.53
5026.95 1053.63
5029.82 781.063
5032.7 884.105
5035.57 927.531
5038.44 822.349
5041.31 808.005
5044.18 744.22
5047.05 594.631
5049.92 535.504
5052.79 737.913
5055.66 808.235
5058.53 729.399
5061.4 585.38
5064.28 633.919
5067.15 592.569
5070.02 383.451
5072.89 403.122
5075.76 508.097
5078.63 488.218
5081.5 343.237
5084.37 462.572
5087.24 481.25
5090.11 423.128
5092.98 465.417
5095.86 345.259
5098.73 320.9
5101.6 388.758
5104.47 460.262
5107.34 346.103
5110.21 418.462
5113.08 339.049
5115.95 347.203
5118.82 338.387
5121.69 442.813
5124.56 348.19
5127.44 288.759
5130.31 267.781
5133.18 331.165
5136.05 369.118
5138.92 463.209
5141.79 486.573
5144.66 380.786
5147.53 332.619
5150.4 415.445
5153.27 341.59
5156.14 348.463
5159.02 413.107
5161.89 339.751
5164.76 328.739
5167.63 416.784
5170.5 406.313
5173.37 453.677
5176.24 414.112
5179.11 351.795
5181.98 398.02
5184.85 342.097
5187.72 347.236
5190.6 434.546
5193.47 518.549
5196.34 472.361
5199.21 347.257
5202.08 426.602
5204.95 492.631
5207.82 508.322
5210.69 410.283
5213.56 532.24
5216.43 415.469
5219.3 518.13
5222.18 510.937
5225.05 627.742
5227.92 447.585
5230.79 396.167
5233.66 458.907
5236.53 536.318
5239.4 468.54
5242.27 576.581
5245.14 500.41
5248.01 423.078
5250.88 483.013
5253.75 495.91
5256.63 430.617
5259.5 541.861
5262.37 479.789
5265.24 516.877
5268.11 516.884
5270.98 597.598
5273.85 538.945
5276.72 508.447
5279.59 580.097
5282.46 534.515
5285.33 536.455
5288.21 624.071
5291.08 559.062
5293.95 539.782
5296.82 529.311
5299.69 610.726
5302.56 558.352
5305.43 591.48
5308.3 582.03
5311.17 729.173
5314.04 721.56
5316.92 603.406
5319.79 564.701
5322.66 667.44
5325.53 695.511
5328.4 696.81
5331.27 601.06
5334.14 671.42
5337.01 669.922
5339.88 676.054
5342.75 580.15
5345.62 584.226
5348.5 622.136
5351.37 626.153
5354.24 599.32
5357.11 520.099
5359.98 682.48
5362.85 617.108
5365.72 713.004
5368.59 751.878
5371.46 683.036
5374.33 736.169
5377.2 730.09
5380.07 751.666
5382.95 661.192
5385.82 537.515
5388.69 562.627
5391.56 561.547
5394.43 508.825
5397.3 665.053
5400.17 710.149
5403.04 627.044
5405.91 599.125
5408.78 672.761
5411.65 583.369
5414.53 595.567
5417.4 558.726
5420.27 722.229
5423.14 791.124
5426.01 701.844
5428.88 636.995
5431.75 671.454
5434.62 553.41
5437.49 550.504
5440.36 592.078
5443.23 559.291
5446.11 488.023
5448.98 539.131
5451.85 474.998
5454.72 625.454
5457.59 631.168
5460.46 439.994
5463.33 458.544
5466.2 588.667
5469.07 621.613
5471.94 691.89
5474.81 590.975
5477.69 565.231
5480.56 408.536
5483.43 538.647
5486.3 508.201
5489.17 506.96
5492.04 583.95
5494.91 643.814
5497.78 511.869
5500.65 462.613
5503.52 406.997
5506.4 439.427
5509.27 527.488
5512.14 576.06
5515.01 517.983
5517.88 653.944
5520.75 567.476
5523.62 513.032
5526.49 640.251
5529.36 624.642
5532.23 495.761
5535.1 511.862
5537.97 420.207
5540.85 449.97
5543.72 467.213
5546.59 600.407
5549.46 591.561
5552.33 513.229
5555.2 536.561
5558.07 397.015
5560.94 441.7
5563.81 614.885
5566.68 578.7
5569.55 496.606
5572.43 475.032
5575.3 505.635
5578.17 598.761
5581.04 579.5
5583.91 654.307
5586.78 644.433
5589.65 437.92
5592.52 423.666
5595.39 507.76
5598.26 444.117
5601.13 549.775
5604.01 568.706
5606.88 580.184
5609.75 517.041
5612.62 464.045
5615.49 428.288
5618.36 531.109
5621.23 557.151
5624.1 478.447
5626.97 453.694
5629.84 485.797
5632.71 568.507
5635.59 549.551
5638.46 548.333
5641.33 540.206
5644.2 430.484
5647.07 499.673
5649.94 606.393
5652.81 553.666
5655.68 476.625
5658.55 559.8
5661.42 503.679
5664.29 486.027
5667.17 546.182
5670.04 607.194
5672.91 538.089
5675.78 472.946
5678.65 539.557
5681.52 515.432
5684.39 411.896
5687.26 459.256
5690.13 414.008
5693 458.478
5695.87 486.78
5698.75 476.407
5701.62 518.939
5704.49 585.168
5707.36 511.991
5710.23 505.561
5713.1 512.952
5715.97 443.04
5718.84 593.392
5721.71 554.064
5724.58 436.925
5727.45 402.944
5730.33 484.529
5733.2 358.109
5736.07 544.817
5738.94 496.095
5741.81 592.566
5744.68 522.358
5747.55 452.838
5750.42 399.037
5753.29 385.27
5756.16 393.363
5759.03 444.023
5761.9 486.144
5764.78 507.171
5767.65 453.422
5770.52 482.616
5773.39 459.428
5776.26 421.555
5779.13 546.382
5782 550.561
5784.87 407.733
5787.74 521.719
5790.61 550.864
5793.48 452.765
5796.36 354.51
5799.23 391.13
5802.1 534.78
5804.97 473.146
5807.84 567.295
5810.71 452.958
5813.58 441.601
5816.45 443.629
5819.32 516.877
5822.19 550.654
5825.06 529.269
5827.94 363.893
5830.81 346.08
5833.68 367.946
5836.55 501.074
5839.42 526.948
5842.29 417.44
5845.16 429.177
5848.03 423.606
5850.9 533.388
5853.77 513.215
5856.65 594.737
5859.52 450.416
5862.39 394.318
5865.26 502.557
5868.13 401.736
5871 345.212
5873.87 482.354
5876.74 398.686
