scanname 扫描254
timestamp 1/1/1970 00:22
ccdbias 1678.87
ccdgain 2.46132
sigmaread 11.4449
laserwavenum -0.556761
wavenumcorrection -0.829666
scancount 1
totalexposurems 1000
singleexposurems 1000
measurementstate Unknown
scanmode Identification
snr 20.3201 20.3201 20.3201
replacelist 0
peaks 24
291.066 0.618333 0 10.8933 0.00123187
356.585 0.611402 0 8.21625 0.00098182
495.056 0.553608 0 1.91672 0.000333424
569.602 0.515317 0 0.521425 0.00010773
612.999 0.518381 0 0.920181 0.000235985
745.145 0.478513 0 0.413788 0.000110097
768.641 0.473967 0 0.670996 0.000224633
807.198 0.583228 0 17.29 0.00268056
840.2 0.509573 0 7.10067 0.00117836
930.88 0.485086 0 4.88845 0.000920005
954.025 0.453571 0 1.24519 0.000351067
1078.79 0.456979 0 2.99698 0.0007061
1124.42 0.415415 0 0.142233 4.64233e-05
1201.6 0.447173 0 3.11279 0.000807334
1246.83 0.445219 0 1.59875 0.000540222
1310.9 0.438476 0 0.55487 0.000208096
1353.11 1.06174 0 27.5336 0.0092533
1376.61 0.570351 0 4.35544 0.00142354
1543.88 0.492845 0 3.47958 0.00140851
1597.5 0.458142 0 3.61395 0.00144896
1627.19 0.356859 0 0.391516 0.000106902
1825.26 0.309265 0 0.0639656 3.34398e-05
1939.68 0.280924 0 0.403275 0.000154645
1983.25 0.267267 0 0.18218 4.87289e-05
finalresult No match found 1A10697	1.88072e-35
spectrum 2048
-91.2271 0.020946
-88.6291 0.0210275
-86.0327 0.386488
-83.4382 0.232295
-80.8452 0.371277
-78.2541 0.396801
-75.6646 0.316269
-73.0767 0.406322
-70.4907 0.376774
-67.9063 0.37119
-65.3236 0.39621
-62.7426 0.35762
-60.1634 0.464862
-57.5857 0.524452
-55.0098 0.53005
-52.4356 0.501095
-49.8631 0.507234
-47.2924 0.476918
-44.7232 0.53497
-42.1558 0.563443
-39.59 0.568593
-37.0259 0.579371
-34.4636 0.601324
-31.9028 0.599062
-29.3438 0.624246
-26.7864 0.62362
-24.2309 0.63831
-21.6769 0.649909
-19.1245 0.674561
-16.5739 0.720435
-14.0249 0.768625
-11.4777 0.903383
-8.93209 1.01752
-6.38824 0.429785
-3.84596 0.163389
-1.3053 0.133128
1.23353 0.133603
3.77088 0.134276
6.30638 0.143408
8.84031 0.398626
11.3726 0.37348
13.9032 0.451486
16.4322 0.552439
18.9594 0.592101
21.485 0.528206
24.009 0.526503
26.5313 0.506105
29.052 0.514624
31.571 0.517418
34.0883 0.526167
36.604 0.523803
39.1181 0.512358
41.6304 0.485543
44.1412 0.480063
46.6503 0.444073
49.1578 0.437047
51.6636 0.41386
54.1677 0.391784
56.6703 0.384392
59.1712 0.360042
61.6704 0.349699
64.168 0.379501
66.664 0.322102
69.1584 0.342687
71.6511 0.390534
74.1421 0.35484
76.6315 0.397465
79.1194 0.428638
81.6055 0.351133
84.0901 0.378609
86.573 0.438152
89.0543 0.314513
91.534 0.388263
94.012 0.446301
96.4885 0.397131
98.9632 0.422628
101.437 0.426839
103.908 0.38976
106.378 0.415116
108.847 0.477446
111.313 0.384969
113.778 0.450968
116.242 0.455454
118.704 0.496531
121.164 0.552435
123.623 0.568974
126.08 0.594162
128.535 0.611781
130.989 0.618073
133.441 0.607356
135.892 0.600161
138.341 0.589749
140.788 0.593027
143.234 0.589566
145.678 0.588345
148.121 0.581636
150.562 0.57737
153.001 0.567046
155.439 0.567783
157.876 0.562874
160.31 0.555049
162.743 0.553644
165.175 0.554607
167.605 0.557042
170.033 0.551459
172.46 0.545872
174.885 0.547206
177.308 0.548856
179.73 0.545073
182.151 0.550265
184.569 0.548808
186.987 0.552191
189.402 0.549867
191.816 0.547495
194.229 0.546349
196.64 0.548508
199.049 0.547258
201.457 0.54829
203.863 0.554213
206.268 0.562348
208.671 0.577207
211.072 0.608727
213.472 0.634222
215.871 0.656042
218.267 0.654302
220.663 0.634863
223.056 0.616669
225.448 0.600497
227.839 0.603268
230.228 0.614027
232.615 0.624954
235.001 0.627711
237.385 0.618308
239.768 0.602542
242.149 0.580159
244.529 0.569263
246.907 0.561802
249.284 0.555901
251.659 0.554216
254.032 0.552341
256.404 0.547328
258.775 0.544575
261.144 0.542399
263.511 0.539286
265.877 0.53518
268.241 0.533947
270.603 0.535925
272.965 0.537575
275.324 0.540173
277.682 0.537917
280.039 0.542521
282.394 0.550903
284.747 0.567237
287.099 0.596215
289.45 0.622428
291.798 0.623611
294.146 0.600882
296.492 0.57161
298.836 0.551574
301.179 0.539988
303.52 0.534215
305.86 0.532124
308.198 0.531914
310.535 0.531513
312.87 0.531481
315.203 0.532797
317.535 0.530406
319.866 0.527707
322.195 0.529864
324.523 0.529721
326.849 0.530459
329.173 0.533736
331.497 0.528778
333.818 0.530972
336.138 0.528687
338.457 0.531062
340.774 0.531348
343.089 0.533925
345.403 0.539222
347.716 0.549608
350.027 0.567905
352.336 0.592389
354.644 0.61188
356.951 0.614355
359.256 0.602005
361.559 0.579983
363.861 0.564248
366.162 0.550892
368.461 0.542982
370.759 0.5411
373.055 0.5383
375.349 0.532741
377.642 0.527471
379.934 0.523856
382.224 0.525637
384.513 0.519887
386.8 0.520706
389.085 0.52045
391.37 0.523087
393.652 0.518748
395.934 0.518863
398.213 0.5205
400.492 0.516197
402.769 0.51656
405.044 0.515893
407.318 0.518963
409.59 0.518408
411.861 0.519744
414.131 0.517184
416.398 0.517274
418.665 0.515591
420.93 0.517475
423.194 0.517958
425.456 0.519222
427.716 0.515882
429.976 0.517691
432.233 0.520391
434.49 0.517114
436.744 0.514977
438.998 0.51708
441.25 0.515727
443.5 0.518799
445.749 0.515038
447.997 0.51633
450.243 0.519362
452.487 0.519332
454.73 0.519935
456.972 0.524538
459.212 0.521107
461.451 0.527047
463.689 0.52691
465.925 0.52987
468.159 0.531281
470.392 0.536815
472.624 0.534056
474.854 0.536358
477.083 0.535659
479.31 0.534194
481.536 0.538309
483.76 0.536507
485.983 0.539898
488.205 0.541876
490.425 0.548411
492.644 0.548869
494.861 0.552263
497.077 0.554805
499.291 0.546572
501.504 0.541772
503.715 0.527262
505.926 0.524594
508.134 0.519087
510.342 0.517333
512.547 0.513588
514.752 0.511552
516.955 0.512023
519.156 0.513322
521.357 0.512359
523.555 0.511923
525.753 0.509525
527.949 0.513266
530.143 0.504562
532.336 0.506746
534.528 0.510164
536.718 0.510462
538.907 0.507037
541.094 0.506347
543.28 0.504848
545.465 0.507363
547.648 0.506919
549.83 0.509483
552.01 0.509367
554.19 0.506865
556.367 0.507809
558.543 0.507054
560.718 0.51121
562.892 0.51023
565.064 0.512255
567.234 0.515622
569.403 0.518237
571.571 0.510849
573.738 0.515614
575.903 0.510399
578.066 0.506383
580.229 0.504164
582.39 0.502834
584.549 0.506002
586.707 0.502096
588.864 0.499698
591.019 0.5009
593.173 0.500655
595.326 0.502851
597.477 0.501446
599.627 0.502803
601.775 0.507917
603.922 0.507409
606.068 0.509708
608.212 0.51375
610.355 0.515123
612.497 0.518987
614.637 0.517269
616.776 0.516873
618.913 0.508567
621.049 0.503442
623.184 0.499143
625.317 0.496139
627.449 0.495653
629.58 0.494418
631.709 0.491925
633.837 0.491452
635.963 0.491318
638.088 0.492152
640.212 0.490424
642.334 0.489473
644.455 0.487977
646.575 0.486491
648.694 0.487765
650.811 0.486598
652.926 0.485872
655.04 0.485168
657.153 0.482624
659.265 0.483757
661.375 0.482691
663.484 0.484057
665.591 0.484508
667.698 0.483519
669.802 0.47985
671.906 0.48526
674.008 0.478391
676.109 0.48464
678.208 0.476039
680.306 0.484255
682.403 0.481442
684.499 0.481696
686.593 0.478327
688.685 0.474966
690.777 0.477663
692.867 0.480465
694.956 0.480346
697.043 0.478653
699.129 0.480513
701.214 0.478888
703.297 0.481091
705.379 0.47578
707.46 0.478033
709.54 0.476866
711.618 0.47467
713.694 0.476831
715.77 0.472518
717.844 0.470636
719.917 0.473217
721.988 0.475353
724.058 0.475744
726.127 0.471441
728.195 0.471591
730.261 0.470147
732.326 0.472453
734.389 0.470029
736.452 0.470491
738.513 0.47579
740.572 0.472979
742.631 0.477025
744.688 0.477524
746.743 0.480699
748.798 0.478944
750.851 0.473718
752.903 0.471302
754.953 0.470777
757.002 0.469651
759.05 0.466827
761.096 0.467816
763.142 0.466798
765.186 0.470317
767.228 0.476152
769.27 0.474591
771.31 0.469718
773.348 0.468698
775.386 0.464688
777.422 0.460283
779.457 0.461234
781.491 0.459385
783.523 0.459967
785.554 0.458102
787.584 0.461693
789.612 0.458472
791.639 0.461586
793.665 0.459193
795.689 0.461475
797.713 0.466587
799.735 0.476906
801.755 0.49917
803.775 0.552846
805.793 0.586943
807.81 0.584631
809.825 0.562397
811.84 0.509416
813.853 0.475115
815.864 0.463797
817.875 0.457647
819.884 0.458137
821.892 0.456691
823.899 0.456155
825.904 0.452737
827.908 0.452637
829.911 0.45588
831.913 0.458723
833.913 0.465669
835.912 0.482064
837.91 0.50365
839.906 0.51465
841.901 0.507368
843.895 0.487668
845.888 0.473795
847.879 0.45794
849.87 0.453855
851.859 0.452903
853.846 0.450958
855.833 0.451845
857.818 0.448433
859.802 0.449001
861.784 0.442868
863.766 0.447698
865.746 0.442232
867.725 0.444071
869.702 0.444312
871.679 0.442809
873.654 0.443547
875.628 0.442914
877.6 0.443398
879.572 0.439427
881.542 0.440263
883.511 0.442096
885.479 0.441783
887.445 0.441179
889.41 0.441396
891.374 0.443635
893.337 0.442221
895.298 0.438224
897.258 0.438502
899.217 0.439971
901.175 0.442417
903.132 0.437987
905.087 0.441966
907.041 0.441322
908.994 0.440608
910.945 0.444832
912.896 0.444935
914.845 0.439403
916.793 0.441084
918.739 0.439443
920.685 0.442722
922.629 0.442954
924.572 0.450598
926.514 0.464359
928.454 0.47829
930.394 0.487756
932.332 0.482763
934.269 0.475336
936.204 0.458133
938.139 0.447475
940.072 0.442917
942.004 0.440036
943.935 0.440195
945.864 0.43626
947.793 0.440719
949.72 0.447517
951.646 0.447466
953.57 0.456395
955.494 0.452546
957.416 0.450891
959.337 0.442562
961.257 0.438387
963.176 0.432375
965.093 0.433123
967.01 0.431864
968.925 0.430529
970.839 0.430753
972.751 0.430948
974.663 0.429213
976.573 0.429179
978.482 0.428049
980.39 0.427932
982.297 0.428104
984.202 0.426639
986.106 0.425736
988.009 0.425848
989.911 0.430151
991.812 0.427119
993.711 0.424311
995.61 0.425103
997.507 0.423518
999.403 0.426661
1001.3 0.425699
1003.19 0.424671
1005.08 0.426288
1006.97 0.423151
1008.86 0.428192
1010.75 0.421878
1012.64 0.422021
1014.53 0.420392
1016.41 0.42444
1018.3 0.426208
1020.18 0.421919
1022.06 0.426308
1023.94 0.421647
1025.82 0.420646
1027.7 0.419769
1029.58 0.421096
1031.45 0.414179
1033.33 0.417494
1035.2 0.418286
1037.07 0.41947
1038.94 0.424036
1040.81 0.422086
1042.68 0.421582
1044.55 0.419638
1046.42 0.41718
1048.28 0.42254
1050.15 0.416665
1052.01 0.418941
1053.87 0.416941
1055.73 0.41755
1057.59 0.418662
1059.45 0.415476
1061.31 0.420855
1063.16 0.423527
1065.02 0.420993
1066.87 0.419963
1068.72 0.422868
1070.58 0.427869
1072.43 0.428692
1074.28 0.443902
1076.12 0.448847
1077.97 0.455942
1079.82 0.459061
1081.66 0.451303
1083.5 0.440425
1085.35 0.431884
1087.19 0.423092
1089.03 0.42397
1090.87 0.41479
1092.7 0.413843
1094.54 0.412521
1096.37 0.415023
1098.21 0.412596
1100.04 0.408977
1101.87 0.409033
1103.7 0.410766
1105.53 0.415928
1107.36 0.410174
1109.19 0.411668
1111.02 0.408611
1112.84 0.408133
1114.66 0.411493
1116.49 0.411456
1118.31 0.412125
1120.13 0.413547
1121.95 0.415072
1123.77 0.418048
1125.58 0.417798
1127.4 0.414305
1129.22 0.41297
1131.03 0.412697
1132.84 0.41248
1134.65 0.413098
1136.46 0.410799
1138.27 0.413469
1140.08 0.410195
1141.89 0.411385
1143.69 0.411398
1145.5 0.408488
1147.3 0.411321
1149.1 0.407979
1150.91 0.409193
1152.71 0.408859
1154.51 0.40489
1156.3 0.407973
1158.1 0.406639
1159.9 0.405349
1161.69 0.404792
1163.48 0.401699
1165.28 0.402347
1167.07 0.406118
1168.86 0.40548
1170.65 0.400379
1172.44 0.406639
1174.22 0.406212
1176.01 0.409224
1177.79 0.404727
1179.58 0.409091
1181.36 0.404565
1183.14 0.408037
1184.92 0.403729
1186.7 0.411008
1188.48 0.4057
1190.26 0.406039
1192.03 0.409904
1193.81 0.412718
1195.58 0.421711
1197.35 0.43285
1199.12 0.439928
1200.89 0.449902
1202.66 0.446721
1204.43 0.438989
1206.2 0.429316
1207.97 0.415368
1209.73 0.414408
1211.49 0.410151
1213.26 0.411612
1215.02 0.410688
1216.78 0.405185
1218.54 0.409023
1220.3 0.403164
1222.06 0.408782
1223.81 0.405649
1225.57 0.403737
1227.32 0.404553
1229.07 0.407504
1230.83 0.406106
1232.58 0.410326
1234.33 0.409938
1236.07 0.413075
1237.82 0.415931
1239.57 0.425025
1241.31 0.429725
1243.06 0.437102
1244.8 0.443859
1246.54 0.445174
1248.29 0.443422
1250.03 0.439871
1251.77 0.431991
1253.5 0.421218
1255.24 0.413365
1256.98 0.408995
1258.71 0.40209
1260.44 0.40292
1262.18 0.403773
1263.91 0.402556
1265.64 0.404029
1267.37 0.399918
1269.1 0.400566
1270.82 0.40098
1272.55 0.402013
1274.28 0.400459
1276 0.402845
1277.72 0.400555
1279.44 0.402407
1281.17 0.40264
1282.89 0.40357
1284.6 0.402599
1286.32 0.40362
1288.04 0.406839
1289.75 0.402439
1291.47 0.410031
1293.18 0.406946
1294.9 0.411995
1296.61 0.410185
1298.32 0.417275
1300.03 0.416599
1301.73 0.422123
1303.44 0.427441
1305.15 0.430365
1306.85 0.435256
1308.56 0.437914
1310.26 0.438669
1311.96 0.439379
1313.66 0.434106
1315.36 0.435711
1317.06 0.430496
1318.76 0.428299
1320.46 0.425059
1322.15 0.432194
1323.85 0.431603
1325.54 0.431281
1327.23 0.437392
1328.93 0.440415
1330.62 0.448623
1332.31 0.459406
1334 0.47705
1335.68 0.499749
1337.37 0.533776
1339.05 0.569489
1340.74 0.598561
1342.42 0.621755
1344.1 0.643984
1345.79 0.690325
1347.47 0.781066
1349.15 0.895273
1350.82 1.00378
1352.5 1.07207
1354.18 1.06315
1355.85 0.984423
1357.53 0.879814
1359.2 0.774757
1360.87 0.700835
1362.54 0.643041
1364.21 0.60516
1365.88 0.579317
1367.55 0.559444
1369.22 0.543375
1370.88 0.545968
1372.55 0.548865
1374.21 0.556719
1375.88 0.573277
1377.54 0.570169
1379.2 0.560919
1380.86 0.542039
1382.52 0.521783
1384.17 0.497205
1385.83 0.491931
1387.49 0.481379
1389.14 0.477911
1390.8 0.469875
1392.45 0.455364
1394.1 0.446137
1395.75 0.432316
1397.4 0.426915
1399.05 0.417239
1400.7 0.414545
1402.35 0.409375
1403.99 0.411928
1405.64 0.409788
1407.28 0.404559
1408.92 0.407314
1410.56 0.407104
1412.21 0.405812
1413.85 0.402834
1415.48 0.405612
1417.12 0.400385
1418.76 0.399394
1420.39 0.400797
1422.03 0.402462
1423.66 0.399688
1425.3 0.394505
1426.93 0.398053
1428.56 0.398798
1430.19 0.395254
1431.82 0.394926
1433.45 0.394857
1435.07 0.390773
1436.7 0.390485
1438.32 0.38815
1439.95 0.386426
1441.57 0.392801
1443.19 0.394199
1444.81 0.389944
1446.43 0.391603
1448.05 0.390804
1449.67 0.388673
1451.29 0.388204
1452.9 0.385697
1454.52 0.383635
1456.13 0.388345
1457.75 0.384056
1459.36 0.386218
1460.97 0.386338
1462.58 0.385046
1464.19 0.386657
1465.8 0.383501
1467.41 0.386289
1469.01 0.381024
1470.62 0.382904
1472.22 0.376274
1473.83 0.381062
1475.43 0.377633
1477.03 0.378873
1478.63 0.377353
1480.23 0.381762
1481.83 0.381216
1483.43 0.383588
1485.02 0.38245
1486.62 0.380009
1488.21 0.381944
1489.81 0.379307
1491.4 0.376361
1492.99 0.379864
1494.58 0.38261
1496.17 0.378586
1497.76 0.379084
1499.35 0.378973
1500.94 0.378053
1502.52 0.38053
1504.11 0.381498
1505.69 0.378778
1507.27 0.377914
1508.86 0.377455
1510.44 0.381656
1512.02 0.37874
1513.6 0.37959
1515.18 0.383289
1516.75 0.382099
1518.33 0.3848
1519.91 0.379263
1521.48 0.382482
1523.05 0.381444
1524.63 0.38227
1526.2 0.387674
1527.77 0.385529
1529.34 0.385341
1530.91 0.393264
1532.48 0.398777
1534.04 0.409458
1535.61 0.418084
1537.18 0.436128
1538.74 0.455913
1540.3 0.471672
1541.87 0.491917
1543.43 0.492563
1544.99 0.488579
1546.55 0.482308
1548.11 0.468718
1549.66 0.461614
1551.22 0.450915
1552.78 0.438948
1554.33 0.433095
1555.88 0.423212
1557.44 0.416056
1558.99 0.418463
1560.54 0.414768
1562.09 0.409261
1563.64 0.402282
1565.19 0.393774
1566.74 0.384413
1568.28 0.379222
1569.83 0.371368
1571.37 0.370481
1572.92 0.367728
1574.46 0.372277
1576 0.370163
1577.54 0.372904
1579.08 0.370722
1580.62 0.369635
1582.16 0.372541
1583.7 0.378924
1585.23 0.382354
1586.77 0.384447
1588.3 0.390431
1589.84 0.404811
1591.37 0.407564
1592.9 0.433799
1594.43 0.443253
1595.96 0.4546
1597.49 0.461293
1599.02 0.455802
1600.55 0.442288
1602.07 0.424928
1603.6 0.406734
1605.12 0.391206
1606.64 0.385047
1608.17 0.379648
1609.69 0.371727
1611.21 0.364054
1612.73 0.354072
1614.25 0.361856
1615.77 0.355546
1617.28 0.358783
1618.8 0.354157
1620.31 0.356715
1621.83 0.353902
1623.34 0.353598
1624.86 0.357564
1626.37 0.357268
1627.88 0.357419
1629.39 0.35772
1630.9 0.354205
1632.4 0.352968
1633.91 0.349363
1635.42 0.351676
1636.92 0.347725
1638.43 0.343248
1639.93 0.339202
1641.43 0.341104
1642.94 0.340159
1644.44 0.33875
1645.94 0.337929
1647.44 0.339601
1648.93 0.338886
1650.43 0.335315
1651.93 0.334992
1653.42 0.33791
1654.92 0.334798
1656.41 0.335971
1657.9 0.334372
1659.4 0.33245
1660.89 0.332936
1662.38 0.330967
1663.87 0.329135
1665.36 0.330766
1666.84 0.328363
1668.33 0.327252
1669.81 0.325169
1671.3 0.328527
1672.78 0.324307
1674.27 0.323817
1675.75 0.320564
1677.23 0.320895
1678.71 0.318246
1680.19 0.317411
1681.67 0.316092
1683.15 0.315193
1684.62 0.316336
1686.1 0.314272
1687.57 0.312597
1689.05 0.318636
1690.52 0.315988
1691.99 0.319704
1693.47 0.320446
1694.94 0.320137
1696.41 0.319464
1697.88 0.322405
1699.34 0.32448
1700.81 0.319012
1702.28 0.322592
1703.74 0.322036
1705.21 0.323613
1706.67 0.325906
1708.13 0.322932
1709.6 0.322783
1711.06 0.321041
1712.52 0.321653
1713.98 0.321814
1715.44 0.323848
1716.89 0.31957
1718.35 0.320269
1719.81 0.315553
1721.26 0.320951
1722.72 0.321812
1724.17 0.31486
1725.62 0.31448
1727.07 0.31551
1728.52 0.316257
1729.97 0.311951
1731.42 0.316844
1732.87 0.311489
1734.32 0.318402
1735.77 0.313636
1737.21 0.314551
1738.66 0.311133
1740.1 0.311031
1741.54 0.307162
1742.98 0.310336
1744.43 0.312316
1745.87 0.309961
1747.31 0.307829
1748.74 0.311961
1750.18 0.311596
1751.62 0.307749
1753.06 0.31032
1754.49 0.306538
1755.93 0.309351
1757.36 0.308374
1758.79 0.309894
1760.22 0.307438
1761.66 0.310133
1763.09 0.308288
1764.52 0.306246
1765.94 0.310609
1767.37 0.307337
1768.8 0.307796
1770.22 0.307883
1771.65 0.305571
1773.07 0.303151
1774.5 0.302726
1775.92 0.299544
1777.34 0.304148
1778.76 0.300886
1780.18 0.300627
1781.6 0.298589
1783.02 0.300995
1784.44 0.298986
1785.86 0.301189
1787.27 0.298394
1788.69 0.300537
1790.1 0.29948
1791.51 0.298764
1792.93 0.301803
1794.34 0.301842
1795.75 0.29914
1797.16 0.303684
1798.57 0.306379
1799.98 0.307346
1801.39 0.305201
1802.79 0.306774
1804.2 0.307434
1805.6 0.30299
1807.01 0.307669
1808.41 0.30983
1809.81 0.308439
1811.22 0.311567
1812.62 0.311869
1814.02 0.310425
1815.42 0.314145
1816.81 0.309535
1818.21 0.309772
1819.61 0.306476
1821 0.310881
1822.4 0.306354
1823.79 0.313747
1825.19 0.306107
1826.58 0.309065
1827.97 0.30837
1829.36 0.312685
1830.75 0.308839
1832.14 0.304591
1833.53 0.307215
1834.92 0.307823
1836.31 0.302171
1837.69 0.305195
1839.08 0.303094
1840.46 0.301916
1841.85 0.29673
1843.23 0.301298
1844.61 0.296745
1845.99 0.2942
1847.37 0.294613
1848.75 0.295245
1850.13 0.292658
1851.51 0.291313
1852.89 0.286545
1854.26 0.292556
1855.64 0.288601
1857.01 0.290287
1858.39 0.287905
1859.76 0.283832
1861.13 0.282325
1862.5 0.286573
1863.87 0.282228
1865.24 0.280851
1866.61 0.284892
1867.98 0.284524
1869.35 0.279079
1870.72 0.283741
1872.08 0.281651
1873.45 0.2799
1874.81 0.280584
1876.18 0.279751
1877.54 0.277756
1878.9 0.275419
1880.26 0.27385
1881.62 0.270483
1882.98 0.276864
1884.34 0.273837
1885.7 0.272245
1887.05 0.27208
1888.41 0.270635
1889.77 0.267702
1891.12 0.272355
1892.47 0.272093
1893.83 0.270445
1895.18 0.269566
1896.53 0.267476
1897.88 0.267257
1899.23 0.270904
1900.58 0.272922
1901.93 0.270568
1903.28 0.268922
1904.62 0.272035
1905.97 0.26799
1907.31 0.274746
1908.66 0.276596
1910 0.272765
1911.35 0.272651
1912.69 0.275401
1914.03 0.276476
1915.37 0.27415
1916.71 0.271453
1918.05 0.274665
1919.39 0.28019
1920.72 0.272598
1922.06 0.276366
1923.4 0.278802
1924.73 0.276712
1926.06 0.278556
1927.4 0.277247
1928.73 0.276614
1930.06 0.278575
1931.39 0.27617
1932.72 0.272734
1934.05 0.277297
1935.38 0.280756
1936.71 0.277089
1938.04 0.277931
1939.36 0.281535
1940.69 0.280829
1942.01 0.279169
1943.34 0.278697
1944.66 0.28231
1945.98 0.271019
1947.3 0.274561
1948.62 0.266654
1949.94 0.267499
1951.26 0.26911
1952.58 0.264818
1953.9 0.262929
1955.22 0.262424
1956.53 0.258002
1957.85 0.255987
1959.16 0.257805
1960.48 0.258449
1961.79 0.255701
1963.1 0.256549
1964.41 0.256145
1965.73 0.252639
1967.04 0.257604
1968.35 0.259485
1969.65 0.26079
1970.96 0.261708
1972.27 0.263062
1973.57 0.261975
1974.88 0.263601
1976.18 0.264098
1977.49 0.264986
1978.79 0.269464
1980.09 0.268739
1981.4 0.26894
1982.7 0.265598
1984 0.263858
1985.3 0.268142
1986.59 0.26237
1987.89 0.268703
1989.19 0.267179
1990.49 0.264011
1991.78 0.261703
1993.08 0.265635
1994.37 0.261732
1995.66 0.258325
1996.96 0.258316
1998.25 0.26885
1999.54 0.262975
2000.83 0.260042
2002.12 0.26505
2003.41 0.26221
2004.7 0.264352
2005.98 0.263035
2007.27 0.259313
2008.55 0.260428
2009.84 0.265474
2011.12 0.263993
2012.41 0.266161
2013.69 0.26205
2014.97 0.261985
2016.25 0.263043
2017.53 0.264373
2018.81 0.258218
2020.09 0.254986
2021.37 0.255678
2022.65 0.259033
2023.92 0.262768
2025.2 0.261072
2026.48 0.255682
2027.75 0.260715
2029.02 0.259802
2030.3 0.259218
2031.57 0.263229
2032.84 0.260311
2034.11 0.264369
2035.38 0.260092
2036.65 0.26148
2037.92 0.255517
2039.19 0.255856
2040.45 0.261424
2041.72 0.259195
2042.98 0.254782
2044.25 0.256909
2045.51 0.256325
2046.78 0.260973
2048.04 0.25782
2049.3 0.25456
2050.56 0.258483
2051.82 0.257946
2053.08 0.257122
2054.34 0.255359
2055.6 0.257001
2056.86 0.253615
2058.11 0.257075
2059.37 0.257796
2060.62 0.253409
2061.88 0.257124
2063.13 0.261947
2064.39 0.253945
2065.64 0.254728
2066.89 0.260233
2068.14 0.256093
2069.39 0.254262
2070.64 0.253989
2071.89 0.250011
2073.14 0.250158
2074.38 0.254217
2075.63 0.253261
2076.87 0.242786
2078.12 0.249501
2079.36 0.250129
2080.61 0.247822
2081.85 0.245483
2083.09 0.242204
2084.33 0.247663
2085.57 0.240986
2086.81 0.241706
2088.05 0.244372
2089.29 0.24863
2090.53 0.242119
2091.76 0.241568
2093 0.244057
2094.24 0.245695
2095.47 0.244554
2096.71 0.245542
2097.94 0.24546
2099.17 0.24487
2100.4 0.247164
2101.63 0.244503
2102.86 0.244832
2104.09 0.249008
2105.32 0.247936
2106.55 0.25265
2107.78 0.249729
2109.01 0.246346
2110.23 0.24841
2111.46 0.252528
2112.68 0.253383
2113.91 0.25305
2115.13 0.242607
2116.35 0.248182
2117.57 0.252405
2118.79 0.250879
2120.01 0.246046
2121.23 0.248194
2122.45 0.250229
2123.67 0.245927
2124.89 0.246519
2126.1 0.246805
2127.32 0.247602
2128.54 0.245362
2129.75 0.247533
2130.96 0.24653
2132.18 0.246411
2133.39 0.251737
2134.6 0.246085
2135.81 0.243588
2137.02 0.243063
2138.23 0.248109
2139.44 0.244341
2140.65 0.24649
2141.86 0.24482
2143.06 0.245137
2144.27 0.245945
2145.48 0.247249
2146.68 0.242499
2147.88 0.246198
2149.09 0.237712
2150.29 0.243185
2151.49 0.249215
2152.69 0.246851
2153.89 0.242866
2155.09 0.247522
2156.29 0.240134
2157.49 0.244697
2158.69 0.242082
2159.88 0.24335
2161.08 0.246284
2162.28 0.241592
2163.47 0.242173
2164.66 0.240671
2165.86 0.242353
2167.05 0.245536
2168.24 0.237927
2169.43 0.245418
2170.62 0.244713
2171.81 0.239752
2173 0.243712
2174.19 0.239663
2175.38 0.238351
2176.57 0.244848
2177.75 0.239857
2178.94 0.242756
2180.12 0.241443
2181.31 0.235613
2182.49 0.241012
2183.67 0.240549
2184.86 0.247659
2186.04 0.239643
2187.22 0.244728
2188.4 0.2348
2189.58 0.23964
2190.76 0.231789
2191.93 0.237414
2193.11 0.236211
2194.29 0.244126
2195.46 0.237378
2196.64 0.237551
2197.81 0.236376
2198.99 0.241155
2200.16 0.236533
2201.33 0.23761
2202.51 0.234067
2203.68 0.235973
2204.85 0.23771
2206.02 0.239204
2207.19 0.235681
2208.35 0.23288
2209.52 0.233879
2210.69 0.236147
2211.85 0.23553
2213.02 0.23709
2214.18 0.233564
2215.35 0.241333
2216.51 0.236159
2217.68 0.237537
2218.84 0.239188
2220 0.239268
2221.16 0.234102
2222.32 0.241596
2223.48 0.233877
2224.64 0.242314
2225.8 0.236531
2226.95 0.236367
2228.11 0.23671
2229.27 0.238713
2230.42 0.237201
2231.58 0.239006
2232.73 0.232117
2233.88 0.232
2235.04 0.237121
2236.19 0.239404
2237.34 0.231261
2238.49 0.232142
2239.64 0.236657
2240.79 0.231394
2241.94 0.230131
2243.08 0.230555
2244.23 0.236072
2245.38 0.233129
2246.52 0.242992
2247.67 0.232703
2248.81 0.238516
2249.96 0.232689
2251.1 0.234006
2252.24 0.236604
2253.38 0.226564
2254.52 0.231791
2255.66 0.234974
2256.8 0.238375
2257.94 0.235852
2259.08 0.23504
2260.22 0.23766
2261.36 0.235095
2262.49 0.235476
2263.63 0.232484
2264.76 0.233695
2265.9 0.235454
2267.03 0.238603
2268.16 0.235067
2269.3 0.234473
2270.43 0.236363
2271.56 0.234114
2272.69 0.235972
2273.82 0.232865
2274.95 0.229015
2276.08 0.236145
2277.2 0.232179
2278.33 0.22819
2279.46 0.229683
2280.58 0.231307
2281.71 0.233392
2282.83 0.232609
2283.95 0.231288
2285.08 0.227713
2286.2 0.229783
2287.32 0.229548
2288.44 0.227732
2289.56 0.229399
2290.68 0.22522
2291.8 0.227585
2292.92 0.222846
2294.04 0.226925
2295.15 0.230106
2296.27 0.228486
2297.38 0.23219
2298.5 0.230243
2299.61 0.234345
2300.73 0.23014
2301.84 0.226005
2302.95 0.224516
2304.06 0.230641
2305.17 0.226745
2306.28 0.22502
2307.39 0.233344
2308.5 0.228789
2309.61 0.226905
2310.72 0.225799
2311.83 0.229465
2312.93 0.225493
2314.04 0.223613
2315.14 0.224106
2316.25 0.23127
2317.35 0.222923
2318.45 0.229557
2319.55 0.223446
2320.66 0.225341
2321.76 0.221676
2322.86 0.225798
2323.96 0.225847
2325.06 0.218986
2326.15 0.224109
2327.25 0.224172
2328.35 0.222724
2329.45 0.218796
2330.54 0.224158
2331.64 0.225918
2332.73 0.220768
2333.82 0.221845
2334.92 0.221336
2336.01 0.221212
2337.1 0.220709
2338.19 0.218583
2339.28 0.223812
2340.37 0.22361
2341.46 0.221652
2342.55 0.217341
2343.64 0.216467
2344.73 0.222002
2345.81 0.222555
2346.9 0.226475
2347.98 0.228534
2349.07 0.220264
2350.15 0.222933
2351.24 0.220257
2352.32 0.219598
2353.4 0.219945
2354.48 0.223409
2355.56 0.220807
2356.64 0.223722
2357.72 0.22636
2358.8 0.213929
2359.88 0.216838
2360.95 0.221123
2362.03 0.22149
2363.11 0.227188
2364.18 0.219945
2365.26 0.222652
2366.33 0.222141
2367.41 0.220583
2368.48 0.221878
2369.55 0.213721
2370.62 0.215314
2371.69 0.220188
2372.76 0.227041
2373.83 0.217286
2374.9 0.216896
2375.97 0.226335
2377.04 0.218333
2378.11 0.216964
2379.17 0.217654
2380.24 0.220503
2381.3 0.223925
2382.37 0.218303
2383.43 0.220678
2384.49 0.220894
2385.56 0.21976
2386.62 0.21704
2387.68 0.222775
2388.74 0.22333
2389.8 0.214982
2390.86 0.214624
2391.92 0.220651
2392.98 0.217777
2394.03 0.212808
2395.09 0.217659
2396.15 0.210577
2397.2 0.211668
2398.26 0.218549
2399.31 0.212347
2400.36 0.211695
2401.42 0.212383
2402.47 0.21375
2403.52 0.220714
2404.57 0.217964
2405.62 0.21105
2406.67 0.220898
2407.72 0.209252
2408.77 0.216495
2409.82 0.214513
2410.86 0.214555
2411.91 0.206387
2412.96 0.214555
2414 0.21457
2415.05 0.216288
2416.09 0.219121
2417.13 0.214807
2418.18 0.210948
2419.22 0.212559
2420.26 0.216424
2421.3 0.211356
2422.34 0.212561
2423.38 0.21545
2424.42 0.213793
2425.46 0.217915
2426.5 0.209869
2427.53 0.208926
2428.57 0.208831
2429.6 0.218276
2430.64 0.211694
2431.67 0.208555
2432.71 0.213995
2433.74 0.21409
2434.77 0.211207
2435.8 0.212777
2436.84 0.214409
2437.87 0.217252
2438.9 0.210832
2439.93 0.212118
2440.95 0.213026
2441.98 0.21552
2443.01 0.21658
2444.04 0.212016
2445.06 0.211003
2446.09 0.212184
2447.11 0.215619
2448.14 0.208251
2449.16 0.205188
2450.18 0.207933
2451.21 0.211832
2452.23 0.209881
2453.25 0.208796
2454.27 0.21769
2455.29 0.209755
2456.31 0.208421
2457.33 0.209403
2458.35 0.204738
2459.36 0.210869
2460.38 0.206378
2461.4 0.206813
2462.41 0.202094
2463.43 0.215636
2464.44 0.211425
2465.45 0.204988
2466.47 0.207457
2467.48 0.20754
2468.49 0.204671
2469.5 0.205682
2470.51 0.201324
2471.52 0.204835
2472.53 0.204901
2473.54 0.202991
2474.55 0.202869
2475.56 0.206051
2476.56 0.210916
2477.57 0.209656
2478.57 0.210698
2479.58 0.201474
2480.58 0.208512
2481.59 0.204614
2482.59 0.203276
2483.59 0.20359
2484.59 0.203687
2485.59 0.202051
2486.59 0.208021
2487.59 0.207297
2488.59 0.201651
2489.59 0.206831
2490.59 0.200844
2491.59 0.206838
2492.58 0.202914
2493.58 0.204825
2494.57 0.202294
2495.57 0.197186
2496.56 0.205421
2497.56 0.200728
2498.55 0.200816
2499.54 0.213359
2500.53 0.199422
2501.53 0.196719
2502.52 0.209819
2503.51 0.198659
2504.49 0.207537
2505.48 0.194734
2506.47 0.201816
2507.46 0.200444
2508.45 0.198572
2509.43 0.198437
2510.42 0.199383
2511.4 0.207321
2512.39 0.203898
2513.37 0.198729
2514.35 0.204078
2515.34 0.200358
2516.32 0.201056
2517.3 0.20097
2518.28 0.195615
2519.26 0.204155
2520.24 0.198386
2521.22 0.200275
2522.19 0.197949
2523.17 0.202959
2524.15 0.196913
2525.12 0.199742
2526.1 0.201068
2527.07 0.195539
2528.05 0.196429
2529.02 0.196119
2530 0.205013
2530.97 0.197811
2531.94 0.201925
2532.91 0.199512
2533.88 0.200841
2534.85 0.196342
2535.82 0.195443
2536.79 0.190012
2537.76 0.204266
2538.73 0.203853
2539.69 0.202275
2540.66 0.20894
2541.62 0.19439
2542.59 0.205932
2543.55 0.211642
2544.52 0.200273
2545.48 0.201647
2546.44 0.194775
2547.41 0.19423
2548.37 0.205793
2549.33 0.200201
2550.29 0.202347
2551.25 0.201139
2552.21 0.201347
2553.16 0.20125
2554.12 0.19757
2555.08 0.193111
2556.04 0.197598
2556.99 0.202265
2557.95 0.19786
2558.9 0.200261
2559.86 0.188869
2560.81 0.194434
2561.76 0.197445
2562.71 0.198109
2563.66 0.201564
2564.62 0.195365
2565.57 0.199314
2566.52 0.19505
2567.46 0.205023
2568.41 0.194891
2569.36 0.198433
2570.31 0.194625
2571.26 0.192471
2572.2 0.196725
2573.15 0.197903
2574.09 0.19518
2575.04 0.194901
2575.98 0.194354
2576.92 0.191754
2577.86 0.194877
2578.81 0.19342
2579.75 0.199384
2580.69 0.19891
2581.63 0.189581
2582.57 0.198989
2583.51 0.195082
2584.44 0.19978
2585.38 0.193402
2586.32 0.194386
2587.25 0.183743
2588.19 0.195441
2589.12 0.194545
2590.06 0.196758
2590.99 0.196329
2591.92 0.189348
2592.86 0.19976
2593.79 0.195152
2594.72 0.193568
2595.65 0.187369
2596.58 0.193062
2597.51 0.192537
2598.44 0.194318
2599.37 0.190643
2600.3 0.193171
2601.22 0.191193
2602.15 0.184159
2603.08 0.194728
2604 0.190906
2604.92 0.188164
2605.85 0.193476
2606.77 0.190667
2607.69 0.201722
2608.62 0.192333
2609.54 0.200429
2610.46 0.196791
2611.38 0.198165
2612.3 0.188834
2613.22 0.20281
2614.14 0.192049
2615.06 0.198169
2615.97 0.194575
2616.89 0.200667
2617.81 0.193297
2618.72 0.198531
2619.64 0.190084
2620.55 0.200033
2621.46 0.194151
2622.38 0.195246
2623.29 0.193336
2624.2 0.188775
2625.11 0.189703
2626.02 0.197124
2626.93 0.202476
2627.84 0.203915
2628.75 0.19606
2629.66 0.195596
2630.57 0.205674
2631.47 0.188639
2632.38 0.190784
2633.28 0.198378
2634.19 0.192401
2635.09 0.204668
2636 0.195033
2636.9 0.19305
2637.8 0.179973
2638.71 0.195832
2639.61 0.193041
2640.51 0.187512
2641.41 0.183766
2642.31 0.190702
2643.21 0.193286
2644.11 0.189992
2645 0.179056
2645.9 0.188211
2646.8 0.188264
2647.69 0.191265
2648.59 0.197313
2649.48 0.194546
2650.38 0.192925
2651.27 0.181937
2652.16 0.190824
2653.06 0.198024
2653.95 0.189143
2654.84 0.190332
2655.73 0.185182
2656.62 0.19171
2657.51 0.190678
2658.4 0.197483
2659.29 0.185437
2660.17 0.189556
2661.06 0.177967
2661.95 0.189125
2662.83 0.192791
2663.72 0.182679
2664.6 0.184814
2665.49 0.193125
2666.37 0.192127
2667.25 0.188309
2668.13 0.193647
2669.02 0.199401
2669.9 0.191029
2670.78 0.189886
2671.66 0.185277
2672.54 0.187334
2673.41 0.191837
2674.29 0.185769
2675.17 0.19273
2676.05 0.194966
2676.92 0.193019
2677.8 0.186984
2678.67 0.196211
2679.55 0.18563
2680.42 0.189433
2681.29 0.197388
2682.16 0.189967
2683.04 0.188776
2683.91 0.194075
2684.78 0.197722
2685.65 0.204945
2686.52 0.191282
2687.39 0.185632
2688.25 0.192778
2689.12 0.194048
2689.99 0.191658
2690.85 0.192547
2691.72 0.198539
2692.58 0.18503
2693.45 0.194335
2694.31 0.190273
2695.18 0.189771
2696.04 0.188214
2696.9 0.188625
2697.76 0.185921
2698.62 0.186328
2699.48 0.188788
2700.34 0.179872
2701.2 0.198829
2702.06 0.197743
2702.92 0.193278
2703.78 0.186051
2704.63 0.197376
2705.49 0.18264
2706.34 0.190732
2707.2 0.189772
2708.05 0.194882
2708.91 0.19343
2709.76 0.183283
2710.61 0.176268
2711.46 0.191014
2712.31 0.194798
2713.17 0.185498
2714.01 0.186325
2714.86 0.189618
2715.71 0.185079
2716.56 0.192101
2717.41 0.1859
2718.26 0.185399
2719.1 0.176049
2719.95 0.194133
2720.79 0.191358
2721.64 0.180318
2722.48 0.186222
2723.32 0.169555
2724.17 0.189267
2725.01 0.18684
2725.85 0.194319
2726.69 0.172546
2727.53 0.19901
2728.37 0.193612
2729.21 0.189589
2730.05 0.188354
2730.89 0.18348
2731.72 0.195173
2732.56 0.175914
2733.4 0.176197
2734.23 0.179324
2735.07 0.180547
2735.9 0.179705
2736.73 0.180609
2737.57 0.186865
2738.4 0.187069
2739.23 0.174448
2740.06 0.181351
2740.89 0.183921
2741.72 0.180684
2742.55 0.180281
2743.38 0.181101
2744.21 0.178784
2745.04 0.193566
2745.86 0.180233
2746.69 0.195955
2747.52 0.184138
2748.34 0.188828
2749.17 0.177855
2749.99 0.184381
2750.81 0.184962
2751.64 0.189592
2752.46 0.191637
2753.28 0.197286
2754.1 0.181763
2754.92 0.19789
2755.74 0.181742
2756.56 0.181476
2757.38 0.191909
2758.19 0.193121
2759.01 0.185986
2759.83 0.182932
2760.64 0.182751
2761.46 0.183711
2762.27 0.185206
2763.09 0.186238
2763.9 0.184673
2764.72 0.191572
2765.53 0.172213
2766.34 0.182383
2767.15 0.176029
2767.96 0.176333
2768.77 0.179642
2769.58 0.179719
2770.39 0.179387
2771.2 0.171323
2772 0.183671
2772.81 0.180425
2773.62 0.166431
2774.42 0.196957
2775.23 0.167584
2776.03 0.176187
2776.84 0.182725
2777.64 0.176221
2778.44 0.18015
2779.24 0.182526
2780.05 0.17801
2780.85 0.171462
2781.65 0.178236
2782.45 0.183963
2783.25 0.180121
2784.04 0.171418
2784.84 0.177157
2785.64 0.179768
2786.44 0.186596
2787.23 0.176964
2788.03 0.183678
2788.82 0.179348
2789.62 0.173393
2790.41 0.181749
2791.2 0.190302
2791.99 0.184544
2792.79 0.167327
2793.58 0.182244
2794.37 0.181661
2795.16 0.185373
2795.95 0.175022
2796.73 0.178777
2797.52 0.174309
2798.31 0.188195
2799.1 0.175704
2799.88 0.171243
2800.67 0.182884
2801.45 0.172515
2802.24 0.170854
2803.02 0.178218
2803.8 0.185958
2804.59 0.179608
2805.37 0.172785
2806.15 0.183712
2806.93 0.178308
2807.71 0.176657
2808.49 0.174309
2809.27 0.171653
2810.05 0.177283
2810.83 0.174458
2811.6 0.176439
2812.38 0.170335
2813.15 0.188648
2813.93 0.181956
2814.7 0.184704
2815.48 0.190533
2816.25 0.171657
2817.02 0.183989
2817.8 0.167595
2818.57 0.174417
2819.34 0.18957
2820.11 0.175671
2820.88 0.182609
2821.65 0.186022
2822.42 0.181659
2823.18 0.174489
2823.95 0.177196
2824.72 0.181584
2825.48 0.182119
2826.25 0.184212
2827.01 0.181108
2827.78 0.186747
2828.54 0.173173
2829.3 0.183788
2830.07 0.180473
2830.83 0.177146
2831.59 0.181494
2832.35 0.183337
2833.11 0.179809
2833.87 0.180153
2834.63 0.180704
2835.39 0.182664
2836.14 0.182237
2836.9 0.175351
2837.66 0.182142
2838.41 0.180455
2839.17 0.180277
2839.92 0.174087
2840.67 0.186761
2841.43 0.176936
2842.18 0.191372
2842.93 0.15591
2843.68 0.179747
2844.43 0.169855
2845.18 0.172741
2845.93 0.168593
2846.68 0.168646
2847.43 0.187276
2848.18 0.167301
2848.93 0.18152
2849.67 0.188091
2850.42 0.184579
2851.16 0.185324
2851.91 0.186984
2852.65 0.170547
2853.39 0.162012
2854.14 0.172708
2854.88 0.176761
2855.62 0.165183
2856.36 0.170927
2857.1 0.196811
2857.84 0.180493
2858.58 0.18357
2859.32 0.179287
2860.06 0.17405
2860.79 0.173584
2861.53 0.169141
2862.26 0.176864
2863 0.191127
2863.73 0.172546
2864.47 0.18429
2865.2 0.185578
2865.93 0.180121
2866.67 0.182891
2867.4 0.181213
2868.13 0.162105
2868.86 0.176476
2869.59 0.184134
2870.32 0.180052
2871.05 0.185185
2871.77 0.174241
2872.5 0.181485
2873.23 0.179821
2873.95 0.179252
2874.68 0.177412
2875.4 0.181433
2876.13 0.169803
2876.85 0.185405
2877.57 0.18791
2878.3 0.161292
2879.02 0.185758
2879.74 0.170434
2880.46 0.178839
2881.18 0.178451
2881.9 0.164307
2882.62 0.17311
2883.33 0.18288
2884.05 0.164894
2884.77 0.184212
2885.48 0.179473
2886.2 0.181322
2886.91 0.168698
2887.63 0.176431
2888.34 0.18783
2889.05 0.186504
2889.77 0.189309
2890.48 0.178182
2891.19 0.180822
2891.9 0.162967
2892.61 0.19443
2893.32 0.177064
2894.03 0.189203
2894.73 0.175481
2895.44 0.19137
2896.15 0.19207
2896.85 0.179132
2897.56 0.199668
2898.26 0.171954
2898.97 0.180828
2899.67 0.200944
2900.37 0.174553
2901.08 0.18953
2901.78 0.177035
2902.48 0.21012
2903.18 0.184239
2903.88 0.177105
2904.58 0.17622
2905.27 0.175999
spectrumdark 2048
-91.2271 2051
-88.6291 2040
-86.0327 2013
-83.4382 2103
-80.8452 1934
-78.2541 1888
-75.6646 1991
-73.0767 1963
-70.4907 1930
-67.9063 1964
-65.3236 1924
-62.7426 2002
-60.1634 1951
-57.5857 2028
-55.0098 1917
-52.4356 1964
-49.8631 1929
-47.2924 1967
-44.7232 2013
-42.1558 1934
-39.59 1993
-37.0259 1986
-34.4636 1899
-31.9028 1995
-29.3438 1972
-26.7864 1926
-24.2309 1941
-21.6769 1930
-19.1245 1942
-16.5739 1944
-14.0249 1985
-11.4777 1978
-8.93209 1964
-6.38824 1956
-3.84596 1953
-1.3053 1971
1.23353 2005
3.77088 1933
6.30638 1972
8.84031 2051
11.3726 1962
13.9032 1998
16.4322 2003
18.9594 1964
21.485 1955
24.009 1901
26.5313 1957
29.052 1959
31.571 1941
34.0883 2046
36.604 2030
39.1181 1971
41.6304 1999
44.1412 1951
46.6503 1952
49.1578 1961
51.6636 1958
54.1677 1987
56.6703 1974
59.1712 1968
61.6704 2011
64.168 1908
66.664 1946
69.1584 1964
71.6511 1960
74.1421 2023
76.6315 1945
79.1194 1988
81.6055 1956
84.0901 2029
86.573 2010
89.0543 1982
91.534 1973
94.012 1936
96.4885 1935
98.9632 2028
101.437 1988
103.908 1987
106.378 1980
108.847 1967
111.313 1949
113.778 1941
116.242 1999
118.704 1972
121.164 1998
123.623 1955
126.08 1979
128.535 2007
130.989 2020
133.441 2160
135.892 2115
138.341 2154
140.788 2323
143.234 2344
145.678 2424
148.121 2406
150.562 2505
153.001 2382
155.439 2493
157.876 2509
160.31 2481
162.743 2522
165.175 2569
167.605 2422
170.033 2526
172.46 2495
174.885 2504
177.308 2526
179.73 2568
182.151 2505
184.569 2814
186.987 2728
189.402 2693
191.816 2933
194.229 2847
196.64 2909
199.049 2960
201.457 3127
203.863 3062
206.268 3091
208.671 3122
211.072 3052
213.472 3030
215.871 3076
218.267 3094
220.663 3104
223.056 3081
225.448 3040
227.839 3085
230.228 3132
232.615 3020
235.001 3030
237.385 3013
239.768 3019
242.149 2976
244.529 3056
246.907 3044
249.284 3038
251.659 3066
254.032 2948
256.404 3028
258.775 2993
261.144 3028
263.511 3145
265.877 3081
268.241 3073
270.603 3066
272.965 3072
275.324 3014
277.682 3011
280.039 2983
282.394 2992
284.747 3016
287.099 3021
289.45 3043
291.798 3055
294.146 3012
296.492 3009
298.836 3019
301.179 3155
303.52 2986
305.86 3120
308.198 3054
310.535 3047
312.87 3351
315.203 2981
317.535 3053
319.866 3048
322.195 3123
324.523 3011
326.849 3094
329.173 3230
331.497 3264
333.818 3335
336.138 3298
338.457 3132
340.774 3060
343.089 3045
345.403 3122
347.716 3028
350.027 3001
352.336 3021
354.644 3346
356.951 3025
359.256 3041
361.559 3111
363.861 2986
366.162 3064
368.461 2983
370.759 3050
373.055 3010
375.349 3037
377.642 3045
379.934 3058
382.224 3061
384.513 2984
386.8 2987
389.085 3058
391.37 3060
393.652 3034
395.934 3233
398.213 3563
400.492 3848
402.769 3948
405.044 3768
407.318 3422
409.59 3702
411.861 5177
414.131 6304
416.398 6396
418.665 5621
420.93 4033
423.194 3327
425.456 3037
427.716 3004
429.976 2930
432.233 2935
434.49 2930
436.744 2971
438.998 2937
441.25 2861
443.5 2823
445.749 2828
447.997 2898
450.243 2866
452.487 2838
454.73 2814
456.972 2793
459.212 2689
461.451 2777
463.689 2772
465.925 2672
468.159 2711
470.392 2823
472.624 2719
474.854 2705
477.083 2793
479.31 2795
481.536 2763
483.76 2706
485.983 2846
488.205 2715
490.425 2603
492.644 2578
494.861 2657
497.077 2729
499.291 2742
501.504 2722
503.715 2776
505.926 2875
508.134 2867
510.342 2725
512.547 2693
514.752 2641
516.955 2699
519.156 2734
521.357 2726
523.555 2787
525.753 2958
527.949 3198
530.143 3337
532.336 3268
534.528 3250
536.718 2949
538.907 2745
541.094 2735
543.28 2713
545.465 2777
547.648 2778
549.83 2947
552.01 2951
554.19 2907
556.367 2898
558.543 2932
560.718 2899
562.892 2818
565.064 2846
567.234 2845
569.403 2784
571.571 2846
573.738 2776
575.903 2969
578.066 2746
580.229 2745
582.39 2724
584.549 2612
586.707 2470
588.864 2453
591.019 2482
593.173 2532
595.326 2653
597.477 2688
599.627 2734
601.775 2752
603.922 2796
606.068 2822
608.212 2808
610.355 2785
612.497 2765
614.637 2816
616.776 2900
618.913 2892
621.049 2902
623.184 2835
625.317 2821
627.449 2829
629.58 2853
631.709 2736
633.837 2899
635.963 3294
638.088 3379
640.212 3430
642.334 3520
644.455 3154
646.575 2925
648.694 2866
650.811 2781
652.926 2792
655.04 2721
657.153 2754
659.265 2681
661.375 2778
663.484 2828
665.591 2959
667.698 2893
669.802 2999
671.906 2864
674.008 2800
676.109 2739
678.208 2818
680.306 2742
682.403 2737
684.499 2937
686.593 3322
688.685 3696
690.777 3869
692.867 3735
694.956 3275
697.043 2852
699.129 2709
701.214 2710
703.297 2778
705.379 2866
707.46 2992
709.54 2783
711.618 2712
713.694 2749
715.77 2788
717.844 2768
719.917 2679
721.988 2688
724.058 2643
726.127 2804
728.195 2912
730.261 2818
732.326 2777
734.389 2822
736.452 2780
738.513 2700
740.572 2749
742.631 3146
744.688 2788
746.743 2757
748.798 2729
750.851 2750
752.903 2784
754.953 3080
757.002 2791
759.05 2831
761.096 2808
763.142 2804
765.186 2801
767.228 2863
769.27 2827
771.31 2817
773.348 2872
775.386 3111
777.422 2870
779.457 2767
781.491 2930
783.523 2852
785.554 2818
787.584 2829
789.612 2895
791.639 2844
793.665 2824
795.689 2840
797.713 2866
799.735 2794
801.755 2765
803.775 2761
805.793 2929
807.81 2917
809.825 2913
811.84 2806
813.853 2842
815.864 2847
817.875 2722
819.884 2918
821.892 2805
823.899 2873
825.904 2850
827.908 2816
829.911 2829
831.913 2819
833.913 2847
835.912 2788
837.91 2965
839.906 2843
841.901 2915
843.895 2898
845.888 3220
847.879 2890
849.87 2935
851.859 2982
853.846 2956
855.833 2765
857.818 2780
859.802 2766
861.784 2832
863.766 2813
865.746 2882
867.725 2925
869.702 2912
871.679 3004
873.654 2979
875.628 2861
877.6 2859
879.572 2845
881.542 2893
883.511 2759
885.479 2778
887.445 3275
889.41 2811
891.374 2810
893.337 2830
895.298 2812
897.258 2831
899.217 2814
901.175 2773
903.132 2848
905.087 2808
907.041 2794
908.994 2813
910.945 2799
912.896 2824
914.845 2808
916.793 2845
918.739 2779
920.685 2987
922.629 2789
924.572 2857
926.514 2771
928.454 2779
930.394 2767
932.332 2811
934.269 2818
936.204 2807
938.139 2879
940.072 2847
942.004 2786
943.935 2752
945.864 2795
947.793 2811
949.72 3194
951.646 2772
953.57 2752
955.494 2883
957.416 2814
959.337 2792
961.257 2808
963.176 2829
965.093 2782
967.01 2844
968.925 2769
970.839 2760
972.751 2690
974.663 2689
976.573 2696
978.482 2726
980.39 2753
982.297 2765
984.202 2874
986.106 2965
988.009 3073
989.911 3063
991.812 2938
993.711 2801
995.61 2727
997.507 2723
999.403 2762
1001.3 2764
1003.19 2719
1005.08 2835
1006.97 2859
1008.86 2732
1010.75 2773
1012.64 2706
1014.53 2815
1016.41 2895
1018.3 2717
1020.18 2786
1022.06 2849
1023.94 2738
1025.82 2707
1027.7 2639
1029.58 2656
1031.45 2550
1033.33 2497
1035.2 2510
1037.07 2594
1038.94 2556
1040.81 2584
1042.68 2810
1044.55 2628
1046.42 2881
1048.28 2677
1050.15 2656
1052.01 2713
1053.87 2745
1055.73 2711
1057.59 2739
1059.45 2704
1061.31 2663
1063.16 2779
1065.02 2762
1066.87 2874
1068.72 2669
1070.58 2703
1072.43 2718
1074.28 2637
1076.12 2780
1077.97 2743
1079.82 2711
1081.66 2785
1083.5 2882
1085.35 2728
1087.19 2742
1089.03 2715
1090.87 2683
1092.7 2756
1094.54 2757
1096.37 2708
1098.21 2746
1100.04 2707
1101.87 2744
1103.7 2730
1105.53 2752
1107.36 2748
1109.19 2706
1111.02 2713
1112.84 2637
1114.66 2788
1116.49 2809
1118.31 2712
1120.13 2774
1121.95 2890
1123.77 2684
1125.58 2694
1127.4 2664
1129.22 2701
1131.03 2753
1132.84 2677
1134.65 2713
1136.46 2777
1138.27 2622
1140.08 2667
1141.89 2730
1143.69 2799
1145.5 2763
1147.3 2673
1149.1 2698
1150.91 2700
1152.71 2922
1154.51 2719
1156.3 2778
1158.1 2660
1159.9 2700
1161.69 2732
1163.48 2683
1165.28 2693
1167.07 2729
1168.86 2696
1170.65 2684
1172.44 2662
1174.22 2674
1176.01 2682
1177.79 2652
1179.58 2648
1181.36 2708
1183.14 2733
1184.92 2688
1186.7 2653
1188.48 2705
1190.26 2628
1192.03 2599
1193.81 2556
1195.58 2611
1197.35 2446
1199.12 2564
1200.89 2650
1202.66 2609
1204.43 2687
1206.2 2645
1207.97 2705
1209.73 2689
1211.49 2639
1213.26 2946
1215.02 2754
1216.78 2646
1218.54 2679
1220.3 2679
1222.06 2585
1223.81 2700
1225.57 2616
1227.32 2675
1229.07 2655
1230.83 2662
1232.58 2649
1234.33 2624
1236.07 2622
1237.82 2618
1239.57 2704
1241.31 2607
1243.06 2657
1244.8 2673
1246.54 2629
1248.29 2709
1250.03 2719
1251.77 2659
1253.5 2691
1255.24 2655
1256.98 2666
1258.71 2670
1260.44 2606
1262.18 2662
1263.91 2630
1265.64 2676
1267.37 2693
1269.1 2597
1270.82 2664
1272.55 2653
1274.28 2676
1276 2578
1277.72 2634
1279.44 2613
1281.17 2611
1282.89 2585
1284.6 2609
1286.32 2617
1288.04 2579
1289.75 2675
1291.47 2619
1293.18 2679
1294.9 2579
1296.61 2591
1298.32 2611
1300.03 2538
1301.73 2582
1303.44 2622
1305.15 2695
1306.85 2583
1308.56 2585
1310.26 2593
1311.96 2645
1313.66 2634
1315.36 2583
1317.06 2554
1318.76 2559
1320.46 2582
1322.15 2544
1323.85 2639
1325.54 2600
1327.23 2598
1328.93 2629
1330.62 2560
1332.31 2666
1334 2605
1335.68 2592
1337.37 2582
1339.05 2709
1340.74 2584
1342.42 2707
1344.1 3236
1345.79 3597
1347.47 3707
1349.15 3636
1350.82 3375
1352.5 2905
1354.18 2702
1355.85 2618
1357.53 2637
1359.2 2711
1360.87 2694
1362.54 2620
1364.21 2596
1365.88 2566
1367.55 2507
1369.22 2561
1370.88 2624
1372.55 2636
1374.21 2568
1375.88 2542
1377.54 2583
1379.2 2617
1380.86 2604
1382.52 2528
1384.17 2569
1385.83 2471
1387.49 2546
1389.14 2541
1390.8 2520
1392.45 2538
1394.1 2579
1395.75 2573
1397.4 2543
1399.05 2553
1400.7 2585
1402.35 2550
1403.99 2614
1405.64 2542
1407.28 2511
1408.92 2506
1410.56 2576
1412.21 2628
1413.85 2597
1415.48 2587
1417.12 2589
1418.76 2541
1420.39 2569
1422.03 2578
1423.66 2566
1425.3 2551
1426.93 2570
1428.56 2563
1430.19 2573
1431.82 2569
1433.45 2550
1435.07 2605
1436.7 2619
1438.32 2606
1439.95 2563
1441.57 2533
1443.19 2503
1444.81 2534
1446.43 2584
1448.05 2527
1449.67 2519
1451.29 2535
1452.9 2520
1454.52 2541
1456.13 2487
1457.75 2502
1459.36 2455
1460.97 2545
1462.58 2559
1464.19 2490
1465.8 2477
1467.41 2434
1469.01 2518
1470.62 2523
1472.22 2504
1473.83 2491
1475.43 2557
1477.03 2448
1478.63 2502
1480.23 2457
1481.83 2474
1483.43 2502
1485.02 2624
1486.62 2493
1488.21 2598
1489.81 2508
1491.4 2569
1492.99 2493
1494.58 2486
1496.17 2461
1497.76 2476
1499.35 2426
1500.94 2499
1502.52 2536
1504.11 2747
1505.69 2481
1507.27 2569
1508.86 2550
1510.44 2513
1512.02 2438
1513.6 2518
1515.18 2491
1516.75 2545
1518.33 2483
1519.91 2533
1521.48 2456
1523.05 2506
1524.63 2446
1526.2 2426
1527.77 2459
1529.34 2417
1530.91 2408
1532.48 2517
1534.04 2468
1535.61 2482
1537.18 2726
1538.74 3065
1540.3 3282
1541.87 3169
1543.43 3129
1544.99 2848
1546.55 2679
1548.11 2476
1549.66 2474
1551.22 2390
1552.78 2517
1554.33 2398
1555.88 2356
1557.44 2305
1558.99 2404
1560.54 2399
1562.09 2424
1563.64 2469
1565.19 2386
1566.74 2368
1568.28 2403
1569.83 2397
1571.37 2270
1572.92 2356
1574.46 2344
1576 2335
1577.54 2366
1579.08 2305
1580.62 2385
1582.16 2308
1583.7 2270
1585.23 2269
1586.77 2303
1588.3 2347
1589.84 2380
1591.37 2337
1592.9 2290
1594.43 2295
1595.96 2267
1597.49 2245
1599.02 2343
1600.55 2264
1602.07 2299
1603.6 2306
1605.12 2343
1606.64 2323
1608.17 2288
1609.69 2314
1611.21 2252
1612.73 2319
1614.25 2250
1615.77 2165
1617.28 2133
1618.8 2160
1620.31 2218
1621.83 2272
1623.34 2294
1624.86 2354
1626.37 2300
1627.88 2313
1629.39 2336
1630.9 2285
1632.4 2245
1633.91 2300
1635.42 2291
1636.92 2245
1638.43 2231
1639.93 2511
1641.43 2260
1642.94 2227
1644.44 2327
1645.94 2323
1647.44 2286
1648.93 2288
1650.43 2267
1651.93 2307
1653.42 2262
1654.92 2273
1656.41 2348
1657.9 2263
1659.4 2246
1660.89 2273
1662.38 2214
1663.87 2337
1665.36 2323
1666.84 2245
1668.33 2391
1669.81 2277
1671.3 2318
1672.78 2399
1674.27 2359
1675.75 2410
1677.23 2351
1678.71 2388
1680.19 2342
1681.67 2395
1683.15 2344
1684.62 2327
1686.1 2316
1687.57 2312
1689.05 2355
1690.52 2417
1691.99 2322
1693.47 2324
1694.94 2269
1696.41 2319
1697.88 2370
1699.34 2364
1700.81 2281
1702.28 2306
1703.74 2294
1705.21 2209
1706.67 2224
1708.13 2183
1709.6 2321
1711.06 2304
1712.52 2298
1713.98 2205
1715.44 2203
1716.89 2211
1718.35 2197
1719.81 2228
1721.26 2291
1722.72 2234
1724.17 2279
1725.62 2247
1727.07 2164
1728.52 2182
1729.97 2248
1731.42 2230
1732.87 2234
1734.32 2241
1735.77 2177
1737.21 2156
1738.66 2284
1740.1 2208
1741.54 2190
1742.98 2239
1744.43 2196
1745.87 2244
1747.31 2216
1748.74 2233
1750.18 2182
1751.62 2216
1753.06 2309
1754.49 2232
1755.93 2251
1757.36 2201
1758.79 2185
1760.22 2155
1761.66 2213
1763.09 2190
1764.52 2326
1765.94 2190
1767.37 2287
1768.8 2283
1770.22 2332
1771.65 2189
1773.07 2200
1774.5 2215
1775.92 2226
1777.34 2369
1778.76 2267
1780.18 2353
1781.6 2346
1783.02 2224
1784.44 2183
1785.86 2207
1787.27 2123
1788.69 2261
1790.1 2216
1791.51 2179
1792.93 2143
1794.34 2182
1795.75 2083
1797.16 2177
1798.57 2243
1799.98 2182
1801.39 2256
1802.79 2267
1804.2 2246
1805.6 2335
1807.01 2249
1808.41 2333
1809.81 2239
1811.22 2284
1812.62 2171
1814.02 2199
1815.42 2146
1816.81 2122
1818.21 2228
1819.61 2238
1821 2194
1822.4 2256
1823.79 2176
1825.19 2185
1826.58 2200
1827.97 2240
1829.36 2244
1830.75 2320
1832.14 2278
1833.53 2232
1834.92 2173
1836.31 2209
1837.69 2152
1839.08 2212
1840.46 2173
1841.85 2110
1843.23 2126
1844.61 2181
1845.99 2157
1847.37 2218
1848.75 2229
1850.13 2196
1851.51 2231
1852.89 2266
1854.26 2153
1855.64 2202
1857.01 2177
1858.39 2206
1859.76 2228
1861.13 2262
1862.5 2305
1863.87 2243
1865.24 2185
1866.61 2276
1867.98 2208
1869.35 2243
1870.72 2206
1872.08 2247
1873.45 2292
1874.81 2312
1876.18 2242
1877.54 2313
1878.9 2346
1880.26 2220
1881.62 2276
1882.98 2208
1884.34 2199
1885.7 2196
1887.05 2121
1888.41 2285
1889.77 2197
1891.12 2231
1892.47 2216
1893.83 2278
1895.18 2242
1896.53 2250
1897.88 2250
1899.23 2292
1900.58 2245
1901.93 2213
1903.28 2312
1904.62 2252
1905.97 2229
1907.31 2211
1908.66 2203
1910 2200
1911.35 2185
1912.69 2218
1914.03 2207
1915.37 2170
1916.71 2201
1918.05 2219
1919.39 2173
1920.72 2239
1922.06 2197
1923.4 2203
1924.73 2195
1926.06 2238
1927.4 2270
1928.73 2258
1930.06 2203
1931.39 2263
1932.72 2209
1934.05 2253
1935.38 2269
1936.71 2158
1938.04 2298
1939.36 2195
1940.69 2154
1942.01 2154
1943.34 2176
1944.66 2164
1945.98 2267
1947.3 2156
1948.62 2173
1949.94 2213
1951.26 2228
1952.58 2351
1953.9 2237
1955.22 2210
1956.53 2187
1957.85 2209
1959.16 2223
1960.48 2082
1961.79 2104
1963.1 2155
1964.41 2194
1965.73 2146
1967.04 2105
1968.35 2152
1969.65 2171
1970.96 2116
1972.27 2084
1973.57 2086
1974.88 2085
1976.18 2095
1977.49 2133
1978.79 2157
1980.09 2124
1981.4 2119
1982.7 2111
1984 2067
1985.3 2063
1986.59 2113
1987.89 2074
1989.19 2103
1990.49 2051
1991.78 2122
1993.08 2182
1994.37 2088
1995.66 2102
1996.96 2055
1998.25 2089
1999.54 2052
2000.83 2092
2002.12 2117
2003.41 2099
2004.7 2027
2005.98 2040
2007.27 2041
2008.55 2027
2009.84 2022
2011.12 2007
2012.41 2120
2013.69 2014
2014.97 2027
2016.25 2156
2017.53 2050
2018.81 2065
2020.09 2065
2021.37 1962
2022.65 2089
2023.92 2060
2025.2 2051
2026.48 1982
2027.75 2093
2029.02 2023
2030.3 1964
2031.57 1994
2032.84 2012
2034.11 2162
2035.38 2006
2036.65 2060
2037.92 2029
2039.19 2056
2040.45 1984
2041.72 2040
2042.98 2152
2044.25 2011
2045.51 2077
2046.78 2144
2048.04 2068
2049.3 1996
2050.56 2018
2051.82 2042
2053.08 2057
2054.34 2040
2055.6 2073
2056.86 2077
2058.11 2009
2059.37 2023
2060.62 2053
2061.88 2030
2063.13 2046
2064.39 2074
2065.64 2039
2066.89 2035
2068.14 1989
2069.39 2013
2070.64 1968
2071.89 2066
2073.14 2046
2074.38 2023
2075.63 2030
2076.87 2052
2078.12 2000
2079.36 2033
2080.61 2015
2081.85 1989
2083.09 2048
2084.33 2025
2085.57 2074
2086.81 2030
2088.05 2055
2089.29 2088
2090.53 2054
2091.76 2117
2093 2129
2094.24 2103
2095.47 2092
2096.71 2125
2097.94 2107
2099.17 2058
2100.4 2051
2101.63 2036
2102.86 2131
2104.09 2066
2105.32 2044
2106.55 2042
2107.78 2029
2109.01 2055
2110.23 2092
2111.46 2061
2112.68 1981
2113.91 2059
2115.13 2039
2116.35 2332
2117.57 2030
2118.79 2051
2120.01 2079
2121.23 2051
2122.45 2093
2123.67 2049
2124.89 2055
2126.1 2026
2127.32 2087
2128.54 2099
2129.75 2147
2130.96 2051
2132.18 2024
2133.39 2043
2134.6 2082
2135.81 2023
2137.02 2038
2138.23 2040
2139.44 2091
2140.65 2061
2141.86 2086
2143.06 2145
2144.27 2113
2145.48 2102
2146.68 2010
2147.88 2012
2149.09 2046
2150.29 2078
2151.49 2020
2152.69 2044
2153.89 2036
2155.09 2024
2156.29 2161
2157.49 2020
2158.69 2056
2159.88 2189
2161.08 2092
2162.28 2119
2163.47 2017
2164.66 2085
2165.86 1991
2167.05 1976
2168.24 2058
2169.43 2059
2170.62 2094
2171.81 2043
2173 2061
2174.19 2352
2175.38 2094
2176.57 2048
2177.75 2127
2178.94 2011
2180.12 1993
2181.31 2108
2182.49 2048
2183.67 2122
2184.86 2031
2186.04 2058
2187.22 2061
2188.4 2028
2189.58 2020
2190.76 2094
2191.93 2052
2193.11 2102
2194.29 2024
2195.46 2048
2196.64 2061
2197.81 2089
2198.99 2136
2200.16 2120
2201.33 2129
2202.51 2042
2203.68 2107
2204.85 2088
2206.02 2141
2207.19 2107
2208.35 2068
2209.52 2079
2210.69 2000
2211.85 2111
2213.02 2002
2214.18 2076
2215.35 2082
2216.51 1976
2217.68 2051
2218.84 2073
2220 2017
2221.16 2068
2222.32 2056
2223.48 2058
2224.64 2091
2225.8 2094
2226.95 2140
2228.11 2088
2229.27 2045
2230.42 2086
2231.58 2021
2232.73 2081
2233.88 2069
2235.04 2015
2236.19 2001
2237.34 2014
2238.49 2043
2239.64 2002
2240.79 2046
2241.94 1998
2243.08 2065
2244.23 1999
2245.38 2053
2246.52 1973
2247.67 2045
2248.81 2099
2249.96 2074
2251.1 2094
2252.24 2206
2253.38 2082
2254.52 2103
2255.66 2077
2256.8 2013
2257.94 2041
2259.08 2104
2260.22 2071
2261.36 1983
2262.49 2102
2263.63 1975
2264.76 2013
2265.9 2051
2267.03 2051
2268.16 2008
2269.3 2010
2270.43 2054
2271.56 2086
2272.69 2082
2273.82 2036
2274.95 2068
2276.08 2064
2277.2 2024
2278.33 2017
2279.46 2085
2280.58 2081
2281.71 2060
2282.83 2049
2283.95 2043
2285.08 2042
2286.2 2035
2287.32 2064
2288.44 2050
2289.56 2047
2290.68 2061
2291.8 2074
2292.92 2069
2294.04 2113
2295.15 2110
2296.27 2082
2297.38 2080
2298.5 2087
2299.61 2095
2300.73 2153
2301.84 2124
2302.95 2092
2304.06 2002
2305.17 2083
2306.28 2050
2307.39 2060
2308.5 2089
2309.61 2097
2310.72 2134
2311.83 2045
2312.93 2004
2314.04 2002
2315.14 2046
2316.25 2049
2317.35 2026
2318.45 2028
2319.55 2116
2320.66 2084
2321.76 2070
2322.86 2057
2323.96 2029
2325.06 2057
2326.15 2057
2327.25 2053
2328.35 2075
2329.45 2022
2330.54 2054
2331.64 2002
2332.73 2062
2333.82 2047
2334.92 2077
2336.01 2040
2337.1 2041
2338.19 2056
2339.28 2118
2340.37 2026
2341.46 2077
2342.55 2063
2343.64 2032
2344.73 2028
2345.81 2060
2346.9 2027
2347.98 2127
2349.07 2013
2350.15 2125
2351.24 2029
2352.32 2087
2353.4 2111
2354.48 2043
2355.56 2031
2356.64 2026
2357.72 2050
2358.8 2066
2359.88 2107
2360.95 2062
2362.03 2132
2363.11 2028
2364.18 2096
2365.26 2103
2366.33 2013
2367.41 2037
2368.48 2053
2369.55 2093
2370.62 2094
2371.69 2058
2372.76 2074
2373.83 2070
2374.9 2062
2375.97 2076
2377.04 2032
2378.11 2116
2379.17 2148
2380.24 2024
2381.3 2084
2382.37 2032
2383.43 2033
2384.49 2105
2385.56 2021
2386.62 2101
2387.68 2076
2388.74 2082
2389.8 2074
2390.86 2175
2391.92 2002
2392.98 2052
2394.03 2057
2395.09 2060
2396.15 2178
2397.2 2124
2398.26 2089
2399.31 2043
2400.36 2173
2401.42 2052
2402.47 2060
2403.52 2098
2404.57 2127
2405.62 2151
2406.67 2121
2407.72 2168
2408.77 2076
2409.82 2155
2410.86 2062
2411.91 2130
2412.96 2093
2414 2073
2415.05 2131
2416.09 2136
2417.13 2153
2418.18 2190
2419.22 2075
2420.26 2075
2421.3 2117
2422.34 2090
2423.38 2048
2424.42 2179
2425.46 2150
2426.5 2142
2427.53 2556
2428.57 2153
2429.6 2083
2430.64 2124
2431.67 2081
2432.71 2157
2433.74 2107
2434.77 2094
2435.8 2041
2436.84 2118
2437.87 2131
2438.9 2103
2439.93 2104
2440.95 2075
2441.98 2084
2443.01 2078
2444.04 2182
2445.06 2172
2446.09 2130
2447.11 2136
2448.14 2097
2449.16 2101
2450.18 2112
2451.21 2152
2452.23 2104
2453.25 2131
2454.27 2090
2455.29 2160
2456.31 2080
2457.33 2164
2458.35 2090
2459.36 2036
2460.38 2029
2461.4 2040
2462.41 2125
2463.43 2041
2464.44 2060
2465.45 2138
2466.47 2073
2467.48 2075
2468.49 2143
2469.5 2028
2470.51 2104
2471.52 2106
2472.53 2039
2473.54 2082
2474.55 2088
2475.56 2032
2476.56 2049
2477.57 2059
2478.57 2072
2479.58 2060
2480.58 2108
2481.59 2059
2482.59 2123
2483.59 2073
2484.59 2140
2485.59 2161
2486.59 2114
2487.59 2082
2488.59 2167
2489.59 2133
2490.59 2119
2491.59 2133
2492.58 2073
2493.58 2119
2494.57 2138
2495.57 2070
2496.56 2106
2497.56 2034
2498.55 2087
2499.54 2137
2500.53 2025
2501.53 2041
2502.52 2101
2503.51 2090
2504.49 2086
2505.48 2102
2506.47 2162
2507.46 2094
2508.45 2096
2509.43 2153
2510.42 2124
2511.4 2109
2512.39 2072
2513.37 2208
2514.35 2079
2515.34 2096
2516.32 2070
2517.3 2101
2518.28 2116
2519.26 2123
2520.24 2072
2521.22 2153
2522.19 2106
2523.17 2168
2524.15 2087
2525.12 2056
2526.1 2078
2527.07 2097
2528.05 2085
2529.02 2083
2530 2200
2530.97 2232
2531.94 2058
2532.91 2047
2533.88 2038
2534.85 2077
2535.82 2201
2536.79 2113
2537.76 2086
2538.73 2117
2539.69 2082
2540.66 2031
2541.62 2167
2542.59 2061
2543.55 2163
2544.52 2140
2545.48 2079
2546.44 2086
2547.41 2071
2548.37 2083
2549.33 2105
2550.29 2126
2551.25 2057
2552.21 2131
2553.16 2054
2554.12 2246
2555.08 2112
2556.04 2059
2556.99 2046
2557.95 2117
2558.9 2153
2559.86 2044
2560.81 2067
2561.76 2152
2562.71 2066
2563.66 2118
2564.62 2132
2565.57 2082
2566.52 2072
2567.46 2116
2568.41 2041
2569.36 2176
2570.31 2157
2571.26 2077
2572.2 2108
2573.15 2415
2574.09 2104
2575.04 2118
2575.98 2187
2576.92 2117
2577.86 2059
2578.81 2160
2579.75 2157
2580.69 2058
2581.63 2106
2582.57 2095
2583.51 2113
2584.44 2062
2585.38 2092
2586.32 2084
2587.25 2143
2588.19 2055
2589.12 2089
2590.06 2064
2590.99 2056
2591.92 2067
2592.86 2155
2593.79 2066
2594.72 2081
2595.65 2164
2596.58 2062
2597.51 2090
2598.44 2113
2599.37 2146
2600.3 2112
2601.22 2057
2602.15 2109
2603.08 2390
2604 2140
2604.92 2124
2605.85 2066
2606.77 2106
2607.69 2081
2608.62 2065
2609.54 2121
2610.46 2029
2611.38 2053
2612.3 2087
2613.22 2094
2614.14 2114
2615.06 2123
2615.97 2146
2616.89 2099
2617.81 2085
2618.72 2081
2619.64 2098
2620.55 2064
2621.46 2107
2622.38 2099
2623.29 2079
2624.2 2125
2625.11 2097
2626.02 2086
2626.93 2094
2627.84 2038
2628.75 2055
2629.66 2091
2630.57 2108
2631.47 2085
2632.38 2173
2633.28 2062
2634.19 2135
2635.09 2113
2636 2147
2636.9 2150
2637.8 2101
2638.71 2066
2639.61 2158
2640.51 2263
2641.41 2128
2642.31 2139
2643.21 2108
2644.11 2144
2645 2159
2645.9 2140
2646.8 2130
2647.69 2137
2648.59 2109
2649.48 2115
2650.38 2120
2651.27 2089
2652.16 2167
2653.06 2363
2653.95 2075
2654.84 2137
2655.73 2094
2656.62 2099
2657.51 2131
2658.4 2098
2659.29 2082
2660.17 2041
2661.06 2107
2661.95 2191
2662.83 2057
2663.72 2104
2664.6 2139
2665.49 2014
2666.37 2067
2667.25 2263
2668.13 2037
2669.02 2110
2669.9 2105
2670.78 2019
2671.66 2090
2672.54 2098
2673.41 2061
2674.29 2066
2675.17 2122
2676.05 2061
2676.92 2072
2677.8 2071
2678.67 2065
2679.55 2064
2680.42 2110
2681.29 2112
2682.16 2182
2683.04 2042
2683.91 2076
2684.78 2228
2685.65 2073
2686.52 2104
2687.39 2081
2688.25 2101
2689.12 2100
2689.99 2067
2690.85 2060
2691.72 2086
2692.58 2059
2693.45 2069
2694.31 2039
2695.18 2069
2696.04 2064
2696.9 2082
2697.76 2095
2698.62 2079
2699.48 2042
2700.34 2097
2701.2 2164
2702.06 2071
2702.92 2082
2703.78 2069
2704.63 2090
2705.49 2097
2706.34 2078
2707.2 2060
2708.05 2090
2708.91 2056
2709.76 2066
2710.61 2121
2711.46 2076
2712.31 2021
2713.17 2104
2714.01 2120
2714.86 2035
2715.71 2140
2716.56 2106
2717.41 2036
2718.26 2137
2719.1 2042
2719.95 2048
2720.79 2132
2721.64 2104
2722.48 2071
2723.32 2040
2724.17 2089
2725.01 2181
2725.85 2081
2726.69 2123
2727.53 2064
2728.37 2046
2729.21 2050
2730.05 2059
2730.89 2043
2731.72 2056
2732.56 2084
2733.4 2121
2734.23 2131
2735.07 2115
2735.9 2093
2736.73 2056
2737.57 2074
2738.4 2034
2739.23 2118
2740.06 2211
2740.89 2009
2741.72 2081
2742.55 2032
2743.38 2101
2744.21 2090
2745.04 2086
2745.86 2159
2746.69 2060
2747.52 2122
2748.34 2160
2749.17 2137
2749.99 2115
2750.81 2060
2751.64 2097
2752.46 2048
2753.28 2067
2754.1 2059
2754.92 2036
2755.74 2051
2756.56 2073
2757.38 2035
2758.19 2054
2759.01 2036
2759.83 2098
2760.64 2086
2761.46 2050
2762.27 2180
2763.09 2289
2763.9 2100
2764.72 2133
2765.53 2060
2766.34 2084
2767.15 2094
2767.96 2089
2768.77 2107
2769.58 2140
2770.39 2049
2771.2 2140
2772 2078
2772.81 2034
2773.62 2148
2774.42 1998
2775.23 2041
2776.03 2096
2776.84 2100
2777.64 2045
2778.44 2037
2779.24 2115
2780.05 2100
2780.85 2100
2781.65 2162
2782.45 2035
2783.25 2094
2784.04 2089
2784.84 2065
2785.64 2077
2786.44 1998
2787.23 2060
2788.03 2067
2788.82 2042
2789.62 2063
2790.41 2137
2791.2 2045
2791.99 2046
2792.79 2064
2793.58 2034
2794.37 2043
2795.16 2050
2795.95 2045
2796.73 2060
2797.52 2060
2798.31 2055
2799.1 2044
2799.88 2107
2800.67 2092
2801.45 2077
2802.24 2139
2803.02 2037
2803.8 2063
2804.59 2093
2805.37 2087
2806.15 2034
2806.93 2018
2807.71 2087
2808.49 2159
2809.27 2110
2810.05 2081
2810.83 2053
2811.6 2043
2812.38 2114
2813.15 2040
2813.93 2027
2814.7 1967
2815.48 2066
2816.25 2116
2817.02 2100
2817.8 2066
2818.57 2031
2819.34 2028
2820.11 2113
2820.88 2033
2821.65 2100
2822.42 2083
2823.18 2077
2823.95 2114
2824.72 2075
2825.48 2092
2826.25 2071
2827.01 2039
2827.78 1992
2828.54 2034
2829.3 2029
2830.07 2026
2830.83 2050
2831.59 2068
2832.35 2013
2833.11 2134
2833.87 2056
2834.63 2076
2835.39 2021
2836.14 2035
2836.9 2085
2837.66 2061
2838.41 2036
2839.17 2067
2839.92 2075
2840.67 2043
2841.43 2011
2842.18 2005
2842.93 2030
2843.68 2047
2844.43 2070
2845.18 2070
2845.93 2151
2846.68 2101
2847.43 2099
2848.18 2085
2848.93 2048
2849.67 2054
2850.42 2150
2851.16 2038
2851.91 2043
2852.65 2097
2853.39 2121
2854.14 2057
2854.88 2065
2855.62 2063
2856.36 2111
2857.1 2066
2857.84 2067
2858.58 2047
2859.32 2142
2860.06 2059
2860.79 2053
2861.53 2115
2862.26 2039
2863 2080
2863.73 2066
2864.47 2107
2865.2 2042
2865.93 2078
2866.67 2069
2867.4 2057
2868.13 2119
2868.86 2064
2869.59 2044
2870.32 2123
2871.05 2138
2871.77 2074
2872.5 2125
2873.23 2184
2873.95 2334
2874.68 2589
2875.4 2477
2876.13 2562
2876.85 2761
2877.57 2676
2878.3 2738
2879.02 2631
2879.74 2572
2880.46 2626
2881.18 2348
2881.9 2341
2882.62 2262
2883.33 2169
2884.05 2212
2884.77 2148
2885.48 2199
2886.2 2160
2886.91 2119
2887.63 2196
2888.34 2116
2889.05 2106
2889.77 2001
2890.48 2066
2891.19 2121
2891.9 2144
2892.61 2088
2893.32 2183
2894.03 2069
2894.73 2082
2895.44 2044
2896.15 2068
2896.85 2050
2897.56 2035
2898.26 2053
2898.97 2037
2899.67 2029
2900.37 2076
2901.08 2083
2901.78 2126
2902.48 2011
2903.18 2363
2903.88 2045
2904.58 2051
2905.27 2040
