scanname 扫描255
timestamp 1/1/1970 00:24
scancount 1
laserwavenum 850.5
measurementstate Unknown
scanmode Identification
snr 7.21228 7.21228 7.21228
replacelist 0
peaks 18
735.076 0.152228 0 3.22416 0.000558296
800.117 0.115116 0 6.07861 0.00045606
835.318 0.141411 0 15.198 0.000787175
910.928 0.113109 0 12.2177 0.000407998
928.911 0.084427 0 7.24682 0.00022273
1040.23 0.076972 0 2.98821 7.82743e-05
1076.75 0.100387 0 8.60501 0.000262431
1124.63 0.0763122 0 1.1897 6.81527e-05
1198.44 0.0940856 0 3.15702 0.000147579
1309.57 0.155264 0 4.50688 0.000182417
1336.75 0.19684 0 11.7688 0.000444169
1374.04 0.0650762 0 2.36369 9.77385e-05
1418.29 0.0883236 0 4.95376 0.000181142
1447.2 0.0886456 0 1.22158 7.01108e-05
1536.25 0.204685 0 8.9784 0.000410186
1595.66 0.0428777 0 3.13791 0.000124194
1628.92 0.0426266 0 3.41433 0.000149626
3100.15 0.0694755 0 2.52808 0.000137703
finalresult No match found 1A3666	2.20854e-14
spectrum 2048
0 -8.33805
2.86447 -7.9225
5.72895 -6.17933
8.59342 -6.61578
11.4579 -3.91163
14.3224 -1.68652
17.1868 -2.62047
20.0513 -1.2017
22.9158 1.12537
25.7803 1.60342
28.6447 1.45589
31.5092 1.66249
34.3737 5.27806
37.2382 4.77962
40.1026 -0.274405
42.9671 8.91178
45.8316 1.8999
48.696 3.20474
51.5605 5.8653
54.425 0.856622
57.2895 0.45697
60.1539 -1.83134
63.0184 -4.00927
65.8829 -2.22564
68.7474 -0.450541
71.6118 -4.26359
74.4763 -6.31321
77.3408 -3.98502
80.2053 2.5012
83.0697 -0.07905
85.9342 0.886122
88.7987 0.283556
91.6632 3.1783
94.5276 3.64338
97.3921 4.07372
100.257 2.56468
103.121 -2.50729
105.986 -0.762927
108.85 4.27235
111.714 1.49618
114.579 2.87756
117.443 -0.455919
120.308 -2.05496
123.172 0.198018
126.037 -0.617919
128.901 0.0282656
131.766 3.80578
134.63 6.60278
137.495 3.43169
140.359 1.82241
143.224 1.56507
146.088 3.34347
148.953 2.3541
151.817 1.7447
154.682 4.11733
157.546 -1.30658
160.411 -1.44266
163.275 1.22903
166.139 0.224444
169.004 1.25723
171.868 -0.369877
174.733 -3.9358
177.597 -2.46565
180.462 -1.76932
183.326 3.60901
186.191 1.27526
189.055 -0.702485
191.92 5.0096
194.784 10.4335
197.649 -0.781667
200.513 0.130172
203.378 1.253
206.242 -2.85785
209.107 -1.57466
211.971 6.48469
214.836 5.82838
217.7 2.82409
220.564 -1.78204
223.429 -0.246666
226.293 -0.791318
229.158 0.235572
232.022 -0.296392
234.887 0.996078
237.751 -2.10626
240.616 -0.372582
243.48 2.94844
246.345 5.27732
249.209 4.1363
252.074 5.42594
254.938 4.87725
257.803 1.89004
260.667 4.20524
263.532 -0.454118
266.396 3.97695
269.26 0.744517
272.125 1.75639
274.989 -0.792643
277.854 4.44944
280.718 2.64517
283.583 -0.714137
286.447 1.07723
289.312 0.0833611
292.176 2.09953
295.041 5.74489
297.905 3.1594
300.77 2.063
303.634 2.56612
306.499 -0.345463
309.363 0.174736
312.228 7.93411
315.092 5.0183
317.957 1.16672
320.821 2.77125
323.686 0.936842
326.55 3.1546
329.414 2.08598
332.279 0.85086
335.143 0.593979
338.008 1.89962
340.872 1.84514
343.737 0.491696
346.601 1.02638
349.466 1.18096
352.33 -2.30887
355.195 -1.13285
358.059 -0.593391
360.924 -1.30202
363.788 -2.214
366.653 0.680771
369.517 0.817534
372.382 1.75827
375.246 1.97667
378.111 1.87264
380.975 1.33808
383.839 -0.739768
386.704 -3.34677
389.568 0.361471
392.433 3.3188
395.297 3.73131
398.162 0.255327
401.026 -1.42138
403.891 3.59503
406.755 2.27346
409.62 -0.924338
412.484 -0.135577
415.349 3.19861
418.213 7.62753
421.078 0.730362
423.942 1.95394
426.807 1.96711
429.671 2.33848
432.535 -0.751554
435.4 0.519814
438.264 0.219902
441.129 2.30699
443.993 1.75588
446.858 2.64306
449.722 2.15567
452.587 -1.0257
455.451 -2.35259
458.316 -3.53264
461.18 -1.43513
464.045 -1.51819
466.909 1.99096
469.774 1.13937
472.638 1.60892
475.503 0.602293
478.367 5.08962
481.232 2.46003
484.096 -0.131515
486.961 -2.30344
489.825 1.16926
492.689 5.8019
495.554 -0.092445
498.418 3.6786
501.283 2.4578
504.147 -1.58563
507.012 -1.49709
509.876 -0.931065
512.741 -0.95293
515.605 9.64167
518.47 4.55634
521.334 3.95073
524.199 0.556551
527.063 2.7625
529.928 0.547579
532.792 3.07875
535.657 0.205511
538.521 -1.25291
541.385 4.7576
544.25 -1.32754
547.115 -0.831349
549.979 -1.26048
552.843 4.73831
555.708 0.286872
558.572 0.0262374
561.437 -3.7186
564.301 -0.55493
567.166 2.24138
570.03 4.12754
572.895 3.55857
575.759 2.31542
578.624 -0.925301
581.488 0.051158
584.353 -0.792184
587.217 -0.508841
590.082 0.451489
592.946 4.10824
595.81 2.94072
598.675 1.00759
601.539 1.70864
604.404 0.821258
607.268 1.13093
610.133 1.42918
612.997 1.11444
615.862 0.419782
618.726 0.561444
621.591 0.574553
624.455 0.820693
627.32 0.840781
630.184 0.284278
633.049 0.309326
635.913 0.795762
638.778 0.596641
641.642 0.482167
644.507 0.365908
647.371 0.325785
650.235 0.689203
653.1 0.840502
655.964 0.76044
658.829 0.931095
661.693 0.66337
664.558 0.757545
667.422 0.676546
670.287 0.552891
673.151 0.636135
676.016 0.602895
678.88 0.602837
681.745 0.581088
684.609 0.699321
687.474 0.887706
690.338 0.774391
693.203 0.853777
696.067 0.708779
698.932 0.835199
701.796 0.93359
704.66 1.027
707.525 0.872861
710.389 0.788282
713.254 0.842174
716.118 0.793054
718.983 0.885224
721.847 0.939651
724.712 1.00444
727.576 1.17183
730.441 1.23055
733.305 1.47792
736.17 1.61644
739.034 1.66556
741.899 1.16931
744.763 0.813683
747.628 0.7295
750.492 0.729558
753.357 0.662533
756.221 0.603736
759.086 0.61676
761.95 0.655437
764.814 0.680999
767.679 0.796266
770.543 0.73059
773.408 0.616525
776.272 0.638323
779.137 0.663801
782.001 0.70076
784.866 0.764355
787.73 0.795971
790.595 0.808056
793.459 0.891465
796.324 0.979247
799.188 1.06743
802.053 1.31041
804.917 1.26198
807.782 0.725546
810.646 0.454005
813.51 0.452525
816.375 0.485028
819.239 0.539658
822.104 0.616429
824.968 0.716035
827.833 0.84886
830.697 1.02512
833.562 1.29845
836.426 1.71757
839.291 1.63002
842.155 0.757433
845.02 0.411258
847.884 0.342049
850.749 0.372839
853.613 0.379416
856.478 0.412811
859.342 0.431664
862.207 0.438681
865.071 0.462249
867.935 0.494029
870.8 0.475022
873.664 0.502582
876.529 0.527955
879.393 0.520523
882.258 0.53253
885.122 0.552358
887.987 0.587262
890.851 0.581069
893.716 0.624328
896.58 0.631951
899.445 0.693995
902.309 0.743151
905.174 0.880541
908.038 1.03817
910.903 1.23614
913.767 1.30479
916.632 0.916959
919.496 0.691779
922.36 0.656603
925.225 0.74651
928.089 0.924878
930.954 1.02059
933.818 0.742754
936.683 0.569633
939.547 0.539164
942.412 0.521003
945.276 0.51257
948.141 0.524553
951.005 0.538581
953.87 0.551953
956.734 0.548702
959.599 0.550262
962.463 0.54315
965.328 0.548824
968.192 0.563125
971.057 0.559409
973.921 0.577717
976.785 0.58116
979.65 0.588505
982.514 0.590122
985.379 0.581092
988.243 0.589736
991.108 0.595523
993.972 0.603186
996.837 0.600865
999.701 0.603826
1002.57 0.612074
1005.43 0.613751
1008.29 0.623865
1011.16 0.638083
1014.02 0.650339
1016.89 0.662943
1019.75 0.672441
1022.62 0.669851
1025.48 0.670543
1028.35 0.674926
1031.21 0.701748
1034.07 0.71073
1036.94 0.744841
1039.8 0.78574
1042.67 0.810641
1045.53 0.74055
1048.4 0.683832
1051.26 0.686078
1054.13 0.679174
1056.99 0.689659
1059.86 0.701747
1062.72 0.734064
1065.58 0.755217
1068.45 0.781061
1071.31 0.827556
1074.18 0.912244
1077.04 1.07613
1079.91 1.12446
1082.77 0.882606
1085.64 0.728249
1088.5 0.647515
1091.36 0.619483
1094.23 0.602675
1097.09 0.615822
1099.96 0.648324
1102.82 0.639948
1105.69 0.657734
1108.55 0.66091
1111.42 0.687208
1114.28 0.702848
1117.14 0.694768
1120.01 0.72926
1122.87 0.810957
1125.74 0.785927
1128.6 0.730227
1131.47 0.707655
1134.33 0.688206
1137.2 0.673682
1140.06 0.68086
1142.92 0.685844
1145.79 0.682599
1148.65 0.698535
1151.52 0.719528
1154.38 0.732595
1157.25 0.713272
1160.11 0.720852
1162.98 0.723736
1165.84 0.726767
1168.71 0.730747
1171.57 0.72731
1174.43 0.737684
1177.3 0.748155
1180.16 0.746608
1183.03 0.764281
1185.89 0.748261
1188.76 0.787681
1191.62 0.826892
1194.49 0.864136
1197.35 0.946585
1200.21 1.0416
1203.08 0.915998
1205.94 0.808457
1208.81 0.782461
1211.67 0.768552
1214.54 0.755545
1217.4 0.780341
1220.27 0.81132
1223.13 0.83588
1225.99 0.815181
1228.86 0.833672
1231.72 0.843304
1234.59 0.862001
1237.45 0.877689
1240.32 0.88682
1243.18 0.884767
1246.05 0.903573
1248.91 0.916665
1251.78 0.900544
1254.64 0.896072
1257.5 0.8973
1260.37 0.895375
1263.23 0.929533
1266.1 0.949765
1268.96 0.968949
1271.83 0.984709
1274.69 1.00567
1277.56 1.03991
1280.42 1.10768
1283.28 1.14473
1286.15 1.14963
1289.01 1.13465
1291.88 1.18866
1294.74 1.24068
1297.61 1.3014
1300.47 1.38914
1303.34 1.46484
1306.2 1.52461
1309.06 1.57412
1311.93 1.59139
1314.79 1.47781
1317.66 1.37595
1320.52 1.36816
1323.39 1.4154
1326.25 1.53545
1329.12 1.66577
1331.98 1.78995
1334.84 1.93389
1337.71 2.02609
1340.57 1.9746
1343.44 1.77879
1346.3 1.46339
1349.17 1.31403
1352.03 1.24848
1354.9 1.09635
1357.76 0.776948
1360.62 0.584076
1363.49 0.543747
1366.35 0.588384
1369.22 0.619971
1372.08 0.634389
1374.95 0.680383
1377.81 0.681334
1380.68 0.566283
1383.54 0.512886
1386.41 0.538846
1389.27 0.515423
1392.13 0.507162
1395 0.49093
1397.86 0.508384
1400.73 0.530485
1403.59 0.594359
1406.46 0.634652
1409.32 0.716562
1412.19 0.800308
1415.05 0.892124
1417.91 0.921429
1420.78 0.871931
1423.64 0.794255
1426.51 0.721888
1429.37 0.697839
1432.24 0.727363
1435.1 0.790328
1437.97 0.816344
1440.83 0.860876
1443.69 0.8709
1446.56 0.895479
1449.42 0.877682
1452.29 0.86441
1455.15 0.858167
1458.02 0.794558
1460.88 0.783397
1463.75 0.796346
1466.61 0.802554
1469.47 0.804282
1472.34 0.840969
1475.2 0.843035
1478.07 0.871045
1480.93 0.881123
1483.8 0.93158
1486.66 0.977762
1489.53 1.00838
1492.39 1.04128
1495.26 1.09749
1498.12 1.12275
1500.98 1.17808
1503.85 1.26263
1506.71 1.2907
1509.58 1.35093
1512.44 1.4188
1515.31 1.4761
1518.17 1.54208
1521.04 1.54024
1523.9 1.60174
1526.76 1.70964
1529.63 1.84153
1532.49 1.89782
1535.36 2.08463
1538.22 2.12861
1541.09 1.94375
1543.95 1.75647
1546.82 1.54976
1549.68 1.33719
1552.54 1.16145
1555.41 1.09004
1558.27 0.954992
1561.14 0.772562
1564 0.628759
1566.87 0.498751
1569.73 0.371708
1572.6 0.335019
1575.46 0.289893
1578.33 0.281438
1581.19 0.270759
1584.05 0.278718
1586.92 0.337541
1589.78 0.33895
1592.65 0.39881
1595.51 0.458831
1598.38 0.464156
1601.24 0.379586
1604.11 0.309215
1606.97 0.278778
1609.83 0.283385
1612.7 0.277933
1615.56 0.30227
1618.43 0.295893
1621.29 0.317646
1624.16 0.339949
1627.02 0.394017
1629.89 0.481036
1632.75 0.474715
1635.61 0.326178
1638.48 0.23371
1641.34 0.220666
1644.21 0.231821
1647.07 0.246661
1649.94 0.236182
1652.8 0.246742
1655.67 0.211025
1658.53 0.220176
1661.39 0.217571
1664.26 0.214265
1667.12 0.228023
1669.99 0.246505
1672.85 0.237171
1675.72 0.230794
1678.58 0.22952
1681.45 0.24157
1684.31 0.250828
1687.18 0.238159
1690.04 0.247309
1692.9 0.249386
1695.77 0.260712
1698.63 0.271271
1701.5 0.253481
1704.36 0.241587
1707.23 0.24365
1710.09 0.235219
1712.96 0.240808
1715.82 0.263192
1718.68 0.249017
1721.55 0.240699
1724.41 0.240937
1727.28 0.25401
1730.14 0.249906
1733.01 0.290797
1735.87 0.254609
1738.74 0.249705
1741.6 0.265473
1744.46 0.269024
1747.33 0.259685
1750.19 0.27844
1753.06 0.263125
1755.92 0.259736
1758.79 0.269336
1761.65 0.293108
1764.52 0.275531
1767.38 0.286036
1770.24 0.273601
1773.11 0.268538
1775.97 0.255648
1778.84 0.240198
1781.7 0.261553
1784.57 0.27215
1787.43 0.282282
1790.3 0.26872
1793.16 0.268609
1796.02 0.286631
1798.89 0.284683
1801.75 0.278962
1804.62 0.260928
1807.48 0.276814
1810.35 0.310124
1813.21 0.293325
1816.08 0.288757
1818.94 0.289674
1821.81 0.307887
1824.67 0.291483
1827.53 0.284525
1830.4 0.279874
1833.26 0.260158
1836.13 0.255004
1838.99 0.29536
1841.86 0.260085
1844.72 0.285477
1847.59 0.259883
1850.45 0.243618
1853.31 0.254243
1856.18 0.2615
1859.04 0.25458
1861.91 0.259406
1864.77 0.246952
1867.64 0.248885
1870.5 0.255739
1873.37 0.254692
1876.23 0.237235
1879.09 0.255073
1881.96 0.261483
1884.82 0.262515
1887.69 0.24641
1890.55 0.259403
1893.42 0.238328
1896.28 0.255557
1899.15 0.233837
1902.01 0.248374
1904.87 0.240755
1907.74 0.268047
1910.6 0.262038
1913.47 0.255816
1916.33 0.253555
1919.2 0.271554
1922.06 0.251787
1924.93 0.233852
1927.79 0.220236
1930.66 0.218429
1933.52 0.212279
1936.38 0.2403
1939.25 0.227117
1942.11 0.23478
1944.98 0.238668
1947.84 0.236152
1950.71 0.228763
1953.57 0.248334
1956.44 0.242984
1959.3 0.234823
1962.16 0.19922
1965.03 0.168159
1967.89 0.202248
1970.76 0.226993
1973.62 0.168353
1976.49 0.194382
1979.35 0.188523
1982.22 0.219339
1985.08 0.23126
1987.94 0.244697
1990.81 0.229361
1993.67 0.24086
1996.54 0.233194
1999.4 0.225001
2002.27 0.224026
2005.13 0.210537
2008 0.234974
2010.86 0.197898
2013.72 0.202164
2016.59 0.194174
2019.45 0.206919
2022.32 0.199682
2025.18 0.201599
2028.05 0.229383
2030.91 0.223198
2033.78 0.218758
2036.64 0.226686
2039.51 0.233625
2042.37 0.209226
2045.23 0.251219
2048.1 0.206028
2050.96 0.215406
2053.83 0.244862
2056.69 0.270492
2059.56 0.231855
2062.42 0.233552
2065.29 0.236561
2068.15 0.26415
2071.01 0.251185
2073.88 0.255519
2076.74 0.264095
2079.61 0.264949
2082.47 0.274238
2085.34 0.279673
2088.2 0.269458
2091.07 0.285939
2093.93 0.243758
2096.79 0.227012
2099.66 0.241888
2102.52 0.290498
2105.39 0.288952
2108.25 0.272354
2111.12 0.264422
2113.98 0.276034
2116.85 0.276035
2119.71 0.291829
2122.58 0.264123
2125.44 0.247302
2128.3 0.26415
2131.17 0.242191
2134.03 0.251538
2136.9 0.248719
2139.76 0.260403
2142.63 0.24919
2145.49 0.26024
2148.36 0.257411
2151.22 0.24367
2154.08 0.233479
2156.95 0.204387
2159.81 0.184244
2162.68 0.249004
2165.54 0.241288
2168.41 0.23212
2171.27 0.223595
2174.14 0.243571
2177 0.24556
2179.86 0.209546
2182.73 0.247948
2185.59 0.24738
2188.46 0.244621
2191.32 0.21457
2194.19 0.2419
2197.05 0.253401
2199.92 0.273737
2202.78 0.304771
2205.64 0.26854
2208.51 0.265413
2211.37 0.261421
2214.24 0.270179
2217.1 0.272005
2219.97 0.27494
2222.83 0.257714
2225.7 0.249123
2228.56 0.287468
2231.43 0.258069
2234.29 0.256724
2237.15 0.268224
2240.02 0.296181
2242.88 0.289128
2245.75 0.293814
2248.61 0.287823
2251.48 0.302042
2254.34 0.306268
2257.21 0.30389
2260.07 0.298985
2262.93 0.309226
2265.8 0.302952
2268.66 0.327935
2271.53 0.31511
2274.39 0.315226
2277.26 0.316431
2280.12 0.339932
2282.99 0.338599
2285.85 0.316881
2288.71 0.345993
2291.58 0.333713
2294.44 0.360126
2297.31 0.35633
2300.17 0.352627
2303.04 0.365681
2305.9 0.380952
2308.77 0.365008
2311.63 0.381194
2314.49 0.380675
2317.36 0.382357
2320.22 0.405368
2323.09 0.408312
2325.95 0.420368
2328.82 0.402124
2331.68 0.401649
2334.55 0.404838
2337.41 0.419217
2340.28 0.406133
2343.14 0.386527
2346 0.387802
2348.87 0.409068
2351.73 0.412863
2354.6 0.433831
2357.46 0.410666
2360.33 0.416674
2363.19 0.410068
2366.06 0.412486
2368.92 0.409074
2371.78 0.387324
2374.65 0.384237
2377.51 0.378824
2380.38 0.379711
2383.24 0.36753
2386.11 0.380428
2388.97 0.374538
2391.84 0.357927
2394.7 0.381475
2397.56 0.378035
2400.43 0.365672
2403.29 0.35937
2406.16 0.375953
2409.02 0.354165
2411.89 0.366741
2414.75 0.362158
2417.62 0.360425
2420.48 0.365872
2423.34 0.366907
2426.21 0.363262
2429.07 0.364825
2431.94 0.358931
2434.8 0.357015
2437.67 0.364839
2440.53 0.360636
2443.4 0.35434
2446.26 0.353082
2449.12 0.357499
2451.99 0.368101
2454.85 0.382395
2457.72 0.368846
2460.58 0.368701
2463.45 0.363542
2466.31 0.371193
2469.18 0.375284
2472.04 0.378945
2474.91 0.376594
2477.77 0.376829
2480.63 0.367788
2483.5 0.361628
2486.36 0.37849
2489.23 0.354957
2492.09 0.358052
2494.96 0.370057
2497.82 0.364877
2500.69 0.363235
2503.55 0.359249
2506.41 0.354186
2509.28 0.364785
2512.14 0.37033
2515.01 0.360454
2517.87 0.366424
2520.74 0.385651
2523.6 0.361762
2526.47 0.359449
2529.33 0.383316
2532.19 0.354162
2535.06 0.363128
2537.92 0.378965
2540.79 0.385058
2543.65 0.373918
2546.52 0.361323
2549.38 0.372529
2552.25 0.369713
2555.11 0.385756
2557.98 0.404137
2560.84 0.40096
2563.7 0.388925
2566.57 0.367042
2569.43 0.377593
2572.3 0.384222
2575.16 0.377374
2578.03 0.384222
2580.89 0.380239
2583.76 0.379705
2586.62 0.389391
2589.48 0.389457
2592.35 0.399258
2595.21 0.398663
2598.08 0.409782
2600.94 0.384868
2603.81 0.389272
2606.67 0.388165
2609.54 0.398889
2612.4 0.411873
2615.26 0.399425
2618.13 0.402815
2620.99 0.400229
2623.86 0.413444
2626.72 0.405086
2629.59 0.409622
2632.45 0.413104
2635.32 0.415702
2638.18 0.429176
2641.04 0.408007
2643.91 0.407705
2646.77 0.412186
2649.64 0.412017
2652.5 0.41282
2655.37 0.426308
2658.23 0.433603
2661.1 0.433272
2663.96 0.436476
2666.82 0.450939
2669.69 0.43611
2672.55 0.443206
2675.42 0.442361
2678.28 0.428625
2681.15 0.426679
2684.01 0.429907
2686.88 0.442628
2689.74 0.426302
2692.61 0.434383
2695.47 0.435659
2698.33 0.442055
2701.2 0.440726
2704.06 0.437594
2706.93 0.427956
2709.79 0.434101
2712.66 0.438001
2715.52 0.437455
2718.39 0.434928
2721.25 0.442185
2724.11 0.447837
2726.98 0.44103
2729.84 0.431176
2732.71 0.435439
2735.57 0.437313
2738.44 0.437601
2741.3 0.447633
2744.17 0.437364
2747.03 0.435937
2749.89 0.431863
2752.76 0.45148
2755.62 0.44536
2758.49 0.43005
2761.35 0.423207
2764.22 0.413579
2767.08 0.419905
2769.95 0.425023
2772.81 0.429183
2775.68 0.435766
2778.54 0.441924
2781.4 0.441455
2784.27 0.436886
2787.13 0.433882
2790 0.428753
2792.86 0.431081
2795.73 0.435615
2798.59 0.437855
2801.46 0.442393
2804.32 0.444091
2807.18 0.435257
2810.05 0.436264
2812.91 0.4384
2815.78 0.430209
2818.64 0.452842
2821.51 0.465608
2824.37 0.457982
2827.24 0.450399
2830.1 0.440072
2832.96 0.444524
2835.83 0.442885
2838.69 0.454527
2841.56 0.448369
2844.42 0.45199
2847.29 0.455523
2850.15 0.454417
2853.02 0.454851
2855.88 0.460215
2858.74 0.457931
2861.61 0.470575
2864.47 0.47707
2867.34 0.48099
2870.2 0.466187
2873.07 0.494319
2875.93 0.513549
2878.8 0.505942
2881.66 0.485471
2884.53 0.479376
2887.39 0.48861
2890.25 0.478259
2893.12 0.467911
2895.98 0.467138
2898.85 0.471252
2901.71 0.463185
2904.58 0.475045
2907.44 0.474581
2910.31 0.459464
2913.17 0.454737
2916.03 0.444332
2918.9 0.443968
2921.76 0.446019
2924.63 0.443825
2927.49 0.435341
2930.36 0.429653
2933.22 0.438921
2936.09 0.454784
2938.95 0.434805
2941.81 0.427782
2944.68 0.429832
2947.54 0.435003
2950.41 0.431797
2953.27 0.444673
2956.14 0.42356
2959 0.412246
2961.87 0.420773
2964.73 0.451924
2967.59 0.43453
2970.46 0.426441
2973.32 0.414045
2976.19 0.433178
2979.05 0.446604
2981.92 0.43837
2984.78 0.434153
2987.65 0.422254
2990.51 0.425474
2993.38 0.426813
2996.24 0.420419
2999.1 0.433809
3001.97 0.437869
3004.83 0.431911
3007.7 0.448416
3010.56 0.441778
3013.43 0.460975
3016.29 0.467547
3019.16 0.436087
3022.02 0.460776
3024.88 0.464892
3027.75 0.455145
3030.61 0.450011
3033.48 0.449485
3036.34 0.446026
3039.21 0.450135
3042.07 0.462067
3044.94 0.440952
3047.8 0.457706
3050.66 0.476189
3053.53 0.484026
3056.39 0.4983
3059.26 0.486915
3062.12 0.473651
3064.99 0.499785
3067.85 0.499904
3070.72 0.484632
3073.58 0.495289
3076.44 0.510816
3079.31 0.530301
3082.17 0.549232
3085.04 0.56579
3087.9 0.573903
3090.77 0.580105
3093.63 0.634125
3096.5 0.662262
3099.36 0.679067
3102.23 0.713813
3105.09 0.681501
3107.95 0.597949
3110.82 0.515398
3113.68 0.45396
3116.55 0.429387
3119.41 0.396844
3122.28 0.39614
3125.14 0.388896
3128.01 0.399979
3130.87 0.402223
3133.73 0.426439
3136.6 0.426417
3139.46 0.412684
3142.33 0.41992
3145.19 0.409658
3148.06 0.401198
3150.92 0.417668
3153.79 0.401826
3156.65 0.408796
3159.51 0.432377
3162.38 0.426084
3165.24 0.417299
3168.11 0.390273
3170.97 0.415618
3173.84 0.418767
3176.7 0.416152
3179.57 0.414935
3182.43 0.428548
3185.29 0.441216
3188.16 0.431868
3191.02 0.438846
3193.89 0.411881
3196.75 0.396297
3199.62 0.413814
3202.48 0.412995
3205.35 0.408613
3208.21 0.426936
3211.07 0.42643
3213.94 0.408515
3216.8 0.427349
3219.67 0.439851
3222.53 0.43046
3225.4 0.421997
3228.26 0.461068
3231.13 0.451749
3233.99 0.451002
3236.86 0.432368
3239.72 0.424976
3242.58 0.401389
3245.45 0.416903
3248.31 0.41565
3251.18 0.418391
3254.04 0.411553
3256.91 0.417634
3259.77 0.417163
3262.64 0.4048
3265.5 0.422105
3268.36 0.435229
3271.23 0.44712
3274.09 0.431208
3276.96 0.413654
3279.82 0.429754
3282.69 0.42434
3285.55 0.461232
3288.42 0.451176
3291.28 0.436565
3294.14 0.414891
3297.01 0.411857
3299.87 0.416633
3302.74 0.423458
3305.6 0.450299
3308.47 0.442346
3311.33 0.413453
3314.2 0.413643
3317.06 0.446651
3319.93 0.464895
3322.79 0.405841
3325.65 0.424412
3328.52 0.425407
3331.38 0.44906
3334.25 0.430162
3337.11 0.423035
3339.98 0.449991
3342.84 0.437354
3345.71 0.43375
3348.57 0.438245
3351.43 0.435255
3354.3 0.419084
3357.16 0.428599
3360.03 0.432933
3362.89 0.427936
3365.76 0.424815
3368.62 0.439202
3371.49 0.432937
3374.35 0.453378
3377.21 0.43395
3380.08 0.429859
3382.94 0.432394
3385.81 0.454393
3388.67 0.445053
3391.54 0.426594
3394.4 0.459151
3397.27 0.436328
3400.13 0.425757
3402.99 0.423718
3405.86 0.431615
3408.72 0.426257
3411.59 0.414852
3414.45 0.427009
3417.32 0.43401
3420.18 0.441322
3423.05 0.449802
3425.91 0.431202
3428.77 0.420926
3431.64 0.432867
3434.5 0.430481
3437.37 0.434028
3440.23 0.445531
3443.1 0.430577
3445.96 0.458064
3448.83 0.453796
3451.69 0.418664
3454.56 0.421761
3457.42 0.419611
3460.28 0.457308
3463.15 0.440015
3466.01 0.414388
3468.88 0.421915
3471.74 0.421773
3474.61 0.456415
3477.47 0.461267
3480.34 0.438743
3483.2 0.424202
3486.06 0.428577
3488.93 0.452003
3491.79 0.434868
3494.66 0.408754
3497.52 0.413904
3500.39 0.438681
3503.25 0.420003
3506.12 0.40118
3508.98 0.416264
3511.84 0.413318
3514.71 0.411322
3517.57 0.429363
3520.44 0.42612
3523.3 0.430016
3526.17 0.451401
3529.03 0.417423
3531.9 0.408153
3534.76 0.44711
3537.62 0.436052
3540.49 0.454277
3543.35 0.448388
3546.22 0.426001
3549.08 0.408238
3551.95 0.41688
3554.81 0.445577
3557.68 0.416173
3560.54 0.429365
3563.41 0.448434
3566.27 0.414798
3569.13 0.431112
3572 0.399733
3574.86 0.405156
3577.73 0.432816
3580.59 0.442506
3583.46 0.400951
3586.32 0.452276
3589.19 0.432071
3592.05 0.432998
3594.91 0.433236
3597.78 0.424917
3600.64 0.418245
3603.51 0.432726
3606.37 0.430367
3609.24 0.442184
3612.1 0.443266
3614.97 0.463423
3617.83 0.464245
3620.69 0.44833
3623.56 0.428703
3626.42 0.451008
3629.29 0.427757
3632.15 0.426146
3635.02 0.394126
3637.88 0.415585
3640.75 0.416857
3643.61 0.437757
3646.47 0.454928
3649.34 0.456662
3652.2 0.425257
3655.07 0.436793
3657.93 0.439719
3660.8 0.426227
3663.66 0.415802
3666.53 0.449657
3669.39 0.423721
3672.26 0.450691
3675.12 0.435045
3677.98 0.451703
3680.85 0.435081
3683.71 0.429356
3686.58 0.439586
3689.44 0.422834
3692.31 0.435789
3695.17 0.433708
3698.04 0.426176
3700.9 0.410235
3703.76 0.408701
3706.63 0.446323
3709.49 0.466634
3712.36 0.438975
3715.22 0.412479
3718.09 0.428328
3720.95 0.430171
3723.82 0.466703
3726.68 0.446768
3729.54 0.46301
3732.41 0.433145
3735.27 0.42604
3738.14 0.44001
3741 0.485757
3743.87 0.460223
3746.73 0.440898
3749.6 0.466978
3752.46 0.423378
3755.32 0.447044
3758.19 0.452628
3761.05 0.418238
3763.92 0.431183
3766.78 0.420747
3769.65 0.442651
3772.51 0.427003
3775.38 0.448782
3778.24 0.453021
3781.11 0.462545
3783.97 0.457536
3786.83 0.459481
3789.7 0.438615
3792.56 0.39621
3795.43 0.423196
3798.29 0.445755
3801.16 0.446759
3804.02 0.440489
3806.89 0.45102
3809.75 0.437676
3812.61 0.46554
3815.48 0.422264
3818.34 0.457629
3821.21 0.427246
3824.07 0.460508
3826.94 0.449271
3829.8 0.452489
3832.67 0.436417
3835.53 0.449885
3838.39 0.445928
3841.26 0.464978
3844.12 0.456562
3846.99 0.42689
3849.85 0.433114
3852.72 0.506029
3855.58 0.426628
3858.45 0.426922
3861.31 0.434028
3864.17 0.444688
3867.04 0.496807
3869.9 0.444322
3872.77 0.476615
3875.63 0.421198
3878.5 0.423373
3881.36 0.461354
3884.23 0.430421
3887.09 0.436843
3889.96 0.42192
3892.82 0.467414
3895.68 0.451266
3898.55 0.435095
3901.41 0.438942
3904.28 0.463986
3907.14 0.453033
3910.01 0.43874
3912.87 0.447865
3915.74 0.464256
3918.6 0.435765
3921.46 0.422762
3924.33 0.444489
3927.19 0.415056
3930.06 0.450983
3932.92 0.423663
3935.79 0.447254
3938.65 0.408145
3941.52 0.46935
3944.38 0.437219
3947.24 0.434758
3950.11 0.431445
3952.97 0.422325
3955.84 0.427524
3958.7 0.444096
3961.57 0.403977
3964.43 0.408395
3967.3 0.436732
3970.16 0.433141
3973.02 0.445978
3975.89 0.43527
3978.75 0.428091
3981.62 0.454374
3984.48 0.424417
3987.35 0.435183
3990.21 0.431522
3993.08 0.44946
3995.94 0.434428
3998.81 0.419738
4001.67 0.439286
4004.53 0.464328
4007.4 0.443503
4010.26 0.427903
4013.13 0.404183
4015.99 0.439012
4018.86 0.465239
4021.72 0.424479
4024.59 0.435298
4027.45 0.449976
4030.31 0.441974
4033.18 0.459458
4036.04 0.439195
4038.91 0.447463
4041.77 0.433429
4044.64 0.415725
4047.5 0.432506
4050.37 0.449574
4053.23 0.44941
4056.09 0.456749
4058.96 0.453376
4061.82 0.461849
4064.69 0.451479
4067.55 0.476405
4070.42 0.411053
4073.28 0.442945
4076.15 0.432337
4079.01 0.387117
4081.88 0.408614
4084.74 0.453782
4087.6 0.454169
4090.47 0.459505
4093.33 0.394532
4096.2 0.455238
4099.06 0.494881
4101.93 0.416395
4104.79 0.421332
4107.66 0.428869
4110.52 0.414665
4113.38 0.435593
4116.25 0.468758
4119.11 0.433229
4121.98 0.450812
4124.84 0.486004
4127.71 0.401831
4130.57 0.420109
4133.44 0.479251
4136.3 0.403805
4139.16 0.408323
4142.03 0.453606
4144.89 0.402249
4147.76 0.423709
4150.62 0.453517
4153.49 0.467034
4156.35 0.436612
4159.22 0.440206
4162.08 0.420379
4164.94 0.402633
4167.81 0.441953
4170.67 0.486687
4173.54 0.465473
4176.4 0.453137
4179.27 0.473691
4182.13 0.38788
4185 0.427373
4187.86 0.471128
4190.73 0.442426
4193.59 0.424953
4196.45 0.430689
4199.32 0.436313
4202.18 0.435485
4205.05 0.457221
4207.91 0.468366
4210.78 0.452961
4213.64 0.443044
4216.5 0.406687
4219.37 0.440553
4222.23 0.465904
4225.1 0.464585
4227.96 0.458125
4230.83 0.467215
4233.69 0.458269
4236.56 0.439641
4239.42 0.469969
4242.29 0.442932
4245.15 0.401485
4248.01 0.415631
4250.88 0.457982
4253.74 0.446805
4256.61 0.443643
4259.47 0.423513
4262.34 0.427344
4265.2 0.403274
4268.07 0.402657
4270.93 0.389033
4273.79 0.400368
4276.66 0.416329
4279.52 0.419432
4282.39 0.496682
4285.25 0.490476
4288.12 0.452963
4290.98 0.402625
4293.85 0.404911
4296.71 0.418039
4299.57 0.383878
4302.44 0.42372
4305.3 0.401825
4308.17 0.410541
4311.03 0.455364
4313.9 0.411109
4316.76 0.418405
4319.63 0.47617
4322.49 0.464227
4325.36 0.403469
4328.22 0.411862
4331.08 0.393546
4333.95 0.450133
4336.81 0.457043
4339.68 0.459651
4342.54 0.427459
4345.41 0.441415
4348.27 0.422846
4351.14 0.431245
4354 0.422078
4356.86 0.455095
4359.73 0.445111
4362.59 0.435413
4365.46 0.470786
4368.32 0.428633
4371.19 0.439393
4374.05 0.417663
4376.92 0.368936
4379.78 0.44427
4382.64 0.433843
4385.51 0.47764
4388.37 0.430124
4391.24 0.416197
4394.1 0.454517
4396.97 0.464568
4399.83 0.426068
4402.7 0.393712
4405.56 0.435792
4408.43 0.446623
4411.29 0.425569
4414.15 0.381751
4417.02 0.395382
4419.88 0.380074
4422.75 0.44111
4425.61 0.399335
4428.48 0.389533
4431.34 0.426708
4434.21 0.4404
4437.07 0.467145
4439.93 0.448348
4442.8 0.468173
4445.66 0.458547
4448.53 0.430648
4451.39 0.380676
4454.26 0.465753
4457.12 0.436932
4459.99 0.412407
4462.85 0.405265
4465.71 0.398439
4468.58 0.44016
4471.44 0.386064
4474.31 0.39014
4477.17 0.422368
4480.04 0.452227
4482.9 0.427759
4485.77 0.410775
4488.63 0.424311
4491.49 0.427236
4494.36 0.449797
4497.22 0.480937
4500.09 0.431774
4502.95 0.380976
4505.82 0.400603
4508.68 0.453874
4511.55 0.404439
4514.41 0.420777
4517.27 0.460743
4520.14 0.430221
4523 0.450084
4525.87 0.379791
4528.73 0.443102
4531.6 0.388914
4534.46 0.412757
4537.33 0.389697
4540.19 0.464732
4543.06 0.397056
4545.92 0.454145
4548.78 0.451714
4551.65 0.423862
4554.51 0.406116
4557.38 0.42856
4560.24 0.434336
4563.11 0.461432
4565.97 0.436015
4568.84 0.443387
4571.7 0.395032
4574.56 0.456453
4577.43 0.411835
4580.29 0.401842
4583.16 0.404493
4586.02 0.461188
4588.89 0.441257
4591.75 0.423978
4594.62 0.442806
4597.48 0.456619
4600.34 0.427217
4603.21 0.384886
4606.07 0.427464
4608.94 0.424248
4611.8 0.377527
4614.67 0.41357
4617.53 0.395747
4620.4 0.40203
4623.26 0.389463
4626.12 0.463676
4628.99 0.438407
4631.85 0.451114
4634.72 0.508364
4637.58 0.413045
4640.45 0.376531
4643.31 0.415929
4646.18 0.386311
4649.04 0.360435
4651.91 0.33674
4654.77 0.368998
4657.63 0.470808
4660.5 0.484086
4663.36 0.394166
4666.23 0.388854
4669.09 0.426928
4671.96 0.466618
4674.82 0.36616
4677.69 0.35864
4680.55 0.395284
4683.41 0.3839
4686.28 0.418573
4689.14 0.486579
4692.01 0.477288
4694.87 0.474428
4697.74 0.440877
4700.6 0.355323
4703.47 0.365727
4706.33 0.293502
4709.19 0.370913
4712.06 0.530462
4714.92 0.554906
4717.79 0.459553
4720.65 0.37125
4723.52 0.4367
4726.38 0.364604
4729.25 0.329898
4732.11 0.310921
4734.97 0.301509
4737.84 0.3553
4740.7 0.319647
4743.57 0.377541
4746.43 0.319237
4749.3 0.48777
4752.16 0.430098
4755.03 0.47385
4757.89 0.414299
4760.76 0.327151
4763.62 0.528531
4766.48 0.55519
4769.35 0.286667
4772.21 0.226417
4775.08 0.496323
4777.94 0.479593
4780.81 0.308154
4783.67 0.41665
4786.54 0.440644
4789.4 0.502489
4792.26 0.399846
4795.13 0.396846
4797.99 0.411089
4800.86 0.235901
4803.72 0.306165
4806.59 0.488452
4809.45 0.422986
4812.32 0.34036
4815.18 0.509131
4818.04 0.330974
4820.91 0.431115
4823.77 0.621953
4826.64 0.64026
4829.5 0.630762
4832.37 0.432437
4835.23 0.441469
4838.1 0.448954
4840.96 0.543832
4843.83 0.227307
4846.69 0.320708
4849.55 0.379074
4852.42 0.373905
4855.28 0.381628
4858.15 0.659969
4861.01 0.665775
4863.88 0.337752
4866.74 0.266667
4869.6 0.0914858
4872.47 0.468061
4875.33 0.582894
4878.2 0.505793
4881.06 0.65578
4883.93 0.332242
4886.79 0.823156
4889.66 0.327933
4892.52 0.356965
4895.39 0.227468
4898.25 0.361436
4901.11 1.21296
4903.98 0.511752
4906.84 0.702173
4909.71 0.884411
4912.57 0.692707
4915.44 -0.0339515
4918.3 -0.100944
4921.17 0.711013
4924.03 0.365818
4926.89 0.779733
4929.76 0.627345
4932.62 0.397575
4935.49 -0.547381
4938.35 0.100736
4941.22 0.576076
4944.08 0.803512
4946.95 0.488092
4949.81 -0.115821
4952.67 0.508838
4955.54 1.35625
4958.4 0.935402
4961.27 0.11214
4964.13 -0.198802
4967 -0.834912
4969.86 1.37358
4972.73 0.835888
4975.59 0.711088
4978.46 0.378297
4981.32 0.184489
4984.18 -0.290318
4987.05 0.959441
4989.91 0.320255
4992.78 -0.648534
4995.64 0.200252
4998.51 -0.113138
5001.37 -0.299952
5004.24 1.47829
5007.1 0.539106
5009.96 0.859674
5012.83 0.200444
5015.69 0.74608
5018.56 -0.935416
5021.42 1.60698
5024.29 -1.48214
5027.15 -0.534678
5030.02 -0.44784
5032.88 -1.21947
5035.75 -2.6001
5038.61 0.0382694
5041.47 -0.301409
5044.34 0.514227
5047.2 1.30279
5050.07 -1.5362
5052.93 0.138675
5055.8 -0.0469858
5058.66 -2.55158
5061.52 -2.96818
5064.39 -0.714285
5067.25 -0.97926
5070.12 -3.32753
5072.98 1.42071
5075.85 -0.082182
5078.71 2.07411
5081.58 0.535083
5084.44 -2.29792
5087.31 -3.1879
5090.17 1.1515
5093.03 -2.42526
5095.9 -2.07995
5098.76 -0.341364
5101.63 0.65101
5104.49 0.562937
5107.36 -1.87036
5110.22 -1.28949
5113.09 5.27821
5115.95 1.18157
5118.81 -2.03404
5121.68 -0.867726
5124.54 1.16531
5127.41 3.42523
5130.27 2.58651
5133.14 -0.719617
5136 -0.647124
5138.87 4.55795
5141.73 -0.383476
5144.59 3.42759
5147.46 3.33089
5150.32 2.94546
5153.19 3.60055
5156.05 2.28795
5158.92 5.82522
5161.78 1.33119
5164.65 3.16588
5167.51 5.07172
5170.38 3.15939
5173.24 1.07232
5176.1 8.64613
5178.97 4.48393
5181.83 5.23054
5184.7 1.99395
5187.56 1.55818
5190.43 1.30562
5193.29 1.80731
5196.16 3.1468
5199.02 9.23493
5201.88 3.64894
5204.75 3.25597
5207.61 1.2056
5210.48 2.56415
5213.34 3.18601
5216.21 1.51957
5219.07 1.30952
5221.94 6.57292
5224.8 2.82271
5227.66 1.21551
5230.53 5.27991
5233.39 0.869383
5236.26 -0.917856
5239.12 -0.661605
5241.99 -1.49249
5244.85 1.76646
5247.72 4.78553
5250.58 8.52706
5253.44 1.39741
5256.31 2.26274
5259.17 1.30721
5262.04 7.8891
5264.9 2.77401
5267.77 2.93623
5270.63 0.781254
5273.5 3.78419
5276.36 0.918172
5279.23 3.31631
5282.09 0.623176
5284.95 0.122683
5287.82 1.12857
5290.68 4.01069
5293.55 2.17013
5296.41 1.78655
5299.28 2.48238
5302.14 2.11129
5305.01 2.34798
5307.87 -0.108651
5310.73 4.50642
5313.6 1.50239
5316.46 1.77569
5319.33 2.32178
5322.19 3.27102
5325.06 1.40174
5327.92 2.6037
5330.79 -1.33648
5333.65 0.21637
5336.51 4.40614
5339.38 1.10142
5342.24 2.82325
5345.11 -0.0395651
5347.97 0.936246
5350.84 -2.35256
5353.7 -1.90535
5356.57 6.71591
5359.43 1.31817
5362.29 6.01417
5365.16 0.464489
5368.02 -1.04111
5370.89 -0.871566
5373.75 -1.07285
5376.62 -0.176875
5379.48 2.2892
5382.35 -1.80006
5385.21 1.80382
5388.08 3.6005
5390.94 2.14491
5393.8 2.08246
5396.67 -0.162979
5399.53 -1.4315
5402.4 1.47947
5405.26 -0.111804
5408.13 2.88703
5410.99 2.2146
5413.86 3.6147
5416.72 1.96698
5419.58 1.45274
5422.45 0.842352
5425.31 -1.13197
5428.18 1.82525
5431.04 11.6422
5433.91 1.26986
5436.77 -1.08649
5439.64 0.118241
5442.5 4.3839
5445.36 2.70857
5448.23 -0.527228
5451.09 -1.50587
5453.96 -1.24201
5456.82 1.52906
5459.69 5.71819
5462.55 0.684473
5465.42 1.86211
5468.28 -0.693415
5471.15 -0.584541
5474.01 1.70411
5476.87 3.52945
5479.74 -0.266415
5482.6 -0.138976
5485.47 0.879731
5488.33 0.685537
5491.2 4.20065
5494.06 3.21268
5496.92 1.28691
5499.79 4.59127
5502.65 1.44143
5505.52 3.287
5508.38 7.44061
5511.25 4.04328
5514.11 3.70235
5516.98 3.58898
5519.84 3.07925
5522.71 7.08733
5525.57 2.91381
5528.43 0.97824
5531.3 0.197589
5534.16 -0.290071
5537.03 2.64606
5539.89 1.36449
5542.76 0.81885
5545.62 -0.600137
5548.49 -1.03311
5551.35 5.04889
5554.21 3.59089
5557.08 3.46328
5559.94 1.54405
5562.81 -1.02309
5565.67 0.0048356
5568.54 -0.453514
5571.4 2.12739
5574.27 4.87366
5577.13 20.5808
5579.99 9.82835
5582.86 1.75126
5585.72 4.54715
5588.59 2.32057
5591.45 1.91725
5594.32 2.61563
5597.18 7.15946
5600.05 1.54992
5602.91 -1.26972
5605.78 1.54363
5608.64 1.26017
5611.5 -0.18199
5614.37 7.18673
5617.23 1.48885
5620.1 0.625388
5622.96 3.78353
5625.83 2.24049
5628.69 0.231066
5631.56 -1.31899
5634.42 -2.41904
5637.28 2.19279
5640.15 1.29037
5643.01 1.3618
5645.88 7.13529
5648.74 1.25651
5651.61 2.4462
5654.47 3.43161
5657.34 4.442
5660.2 6.3032
5663.06 3.09385
5665.93 0.936711
5668.79 1.90862
5671.66 0.347321
5674.52 3.01188
5677.39 2.3287
5680.25 -1.39936
5683.12 0.867121
5685.98 0.304424
5688.84 3.34156
5691.71 5.87273
5694.57 1.91485
5697.44 2.43046
5700.3 12.0251
5703.17 -0.869754
5706.03 -0.510637
5708.9 0.191923
5711.76 -0.205545
5714.62 4.30688
5717.49 0.326302
5720.35 1.41531
5723.22 4.72537
5726.08 0.44157
5728.95 2.65919
5731.81 2.99231
5734.68 1.66002
5737.54 -0.51542
5740.41 0.603805
5743.27 5.7352
5746.13 -0.524289
5749 1.15647
5751.86 1.39618
5754.73 3.77915
5757.59 0.110388
5760.46 0.973247
5763.32 0.199683
5766.19 2.05738
5769.05 1.35011
5771.91 -1.21974
5774.78 0.0893777
5777.64 -0.295453
5780.51 0.380654
5783.37 3.20844
5786.24 -0.387269
5789.1 3.24721
5791.97 1.67246
5794.83 8.13065
5797.69 0.195722
5800.56 -0.415681
5803.42 0.742445
5806.29 0.134542
5809.15 0.231751
5812.02 1.389
5814.88 2.70103
5817.75 -2.03352
5820.61 1.37966
5823.48 7.88389
5826.34 2.21409
5829.2 2.386
5832.07 1.64945
5834.93 1.07338
5837.8 0.124562
5840.66 -1.26263
5843.53 0.891207
5846.39 0.954375
5849.26 1.78751
5852.12 0.290242
5854.98 -1.99646
5857.85 -1.8622
5860.71 -0.331471
5863.58 -0.030109
spectrumdark 2048
0 7256.17
2.8709 6933.93
5.74181 1883.72
8.61271 2111.66
11.4836 1519.93
14.3545 895.048
17.2254 1111.15
20.0963 1221.99
22.9672 1278.16
25.8381 1475.07
28.709 1924.3
31.5799 2431.83
34.4509 2729.37
37.3218 2404.82
40.1927 2766.22
43.0636 3091.81
45.9345 2862.78
48.8054 3385.93
51.6763 3259.87
54.5472 2912.26
57.4181 2843.42
60.289 2524.86
63.1599 2791.57
66.0308 2401.99
68.9017 1861.45
71.7726 2101.5
74.6435 1858.29
77.5144 1861.27
80.3853 2808.26
83.2562 2741.14
86.1271 2862.52
88.998 3789.85
91.8689 4063.87
94.7398 3738.47
97.6107 4211.55
100.482 5116.92
103.353 3910.44
106.223 4506.01
109.094 3798.76
111.965 4079.27
114.836 3063.73
117.707 2675.44
120.578 3247.93
123.449 3166.4
126.32 2815.78
129.191 3642.68
132.062 3867.88
134.932 3721.92
137.803 2913.1
140.674 3444.23
143.545 3547.63
146.416 2744.85
149.287 3341.89
152.158 4012.3
155.029 4207.13
157.9 3452.48
160.771 3009.72
163.642 3442.85
166.512 2387.21
169.383 4192.08
172.254 2802.74
175.125 2220.8
177.996 2913.15
180.867 2486.48
183.738 2715.12
186.609 3626.39
189.48 3087.73
192.351 3422.88
195.221 3326.2
198.092 3113.74
200.963 3291.7
203.834 2538.2
206.705 1747.13
209.576 2202.08
212.447 2723.93
215.318 2928.23
218.189 2942.89
221.06 2935.27
223.931 3841.98
226.801 3039.33
229.672 3141.47
232.543 2996.01
235.414 3166.84
238.285 2823.16
241.156 3031.7
244.027 3662.05
246.898 3660.55
249.769 3602.34
252.64 3361.27
255.51 2438.75
258.381 2441.86
261.252 2707.21
264.123 2570.69
266.994 2949.69
269.865 2609.75
272.736 3035.71
275.607 2743.05
278.478 2874.75
281.349 3480.68
284.22 2665.21
287.09 2385.22
289.961 2117.31
292.832 2074.07
295.703 2324.32
298.574 2660.88
301.445 2117.54
304.316 1867.77
307.187 2211.57
310.058 2002.78
312.929 2795.06
315.799 2951.89
318.67 2137.11
321.541 2277.4
324.412 2389.19
327.283 2308
330.154 1835.78
333.025 1880.98
335.896 2741.35
338.767 2926.9
341.638 2469.07
344.509 2732.18
347.379 2409.42
350.25 2548.59
353.121 2466.07
355.992 2394.81
358.863 2595.68
361.734 2823.62
364.605 2166.53
367.476 1714.63
370.347 2351.35
373.218 2972.65
376.088 2443.91
378.959 2991.62
381.83 2959.57
384.701 2148.23
387.572 2319.86
390.443 2914.87
393.314 2324.16
396.185 2382.92
399.056 2678.36
401.927 2664.57
404.798 2830.41
407.668 2519.54
410.539 1999.42
413.41 2302.44
416.281 2954.49
419.152 2482.85
422.023 1737.36
424.894 2182.42
427.765 2644.92
430.636 2090.15
433.507 2605.35
436.378 2568.03
439.248 2196.12
442.119 1956.98
444.99 1775.07
447.861 1987.15
450.732 1841.79
453.603 2011.8
456.474 1744.88
459.345 1946.69
462.216 2081.02
465.087 2015.4
467.957 2461.5
470.828 2078.12
473.699 1646.57
476.57 2197.97
479.441 2363.26
482.312 2707.73
485.183 2310.68
488.054 1677.97
490.925 2278.21
493.796 2053.56
496.666 2020.77
499.537 2188.73
502.408 2186.58
505.279 2360.88
508.15 1987.33
511.021 1801.69
513.892 1989.03
516.763 1970.85
519.634 1856.02
522.505 2088.88
525.376 1876.41
528.246 2033.54
531.117 2097.31
533.988 2153.18
536.859 1952.4
539.73 1806
542.601 1755.16
545.472 2204.41
548.343 1868.34
551.214 1901.2
554.085 2150.95
556.955 1838.66
559.826 1794.83
562.697 1291.57
565.568 2343.93
568.439 2124.96
571.31 2057
574.181 2721.74
577.052 1685.84
579.923 1571.93
582.794 2313.14
585.664 2521.18
588.535 3205.87
591.406 3373.44
594.277 3505.5
597.148 3449.57
600.019 3961.59
602.89 5155.68
605.761 5310.64
608.632 6471.42
611.503 6666.33
614.374 7074.38
617.244 8119.93
620.115 9768.34
622.986 11280.7
625.857 12939.6
628.728 15079.2
631.599 17099.8
634.47 18235.4
637.341 20677
640.212 22509
643.083 24360.6
645.953 26043.9
648.824 28072
651.695 30753.4
654.566 33044.6
657.437 35007.6
660.308 37479.5
663.179 39906.8
666.05 41397.3
668.921 39570.6
671.792 45838.1
674.663 48962.2
677.533 51240.9
680.404 53923.6
683.275 55625.9
686.146 57979.2
689.017 61301.3
691.888 63503.5
694.759 66537.4
697.63 68343.2
700.501 70352.8
703.372 73477.9
706.242 76287
709.113 79250.4
711.984 81688.8
714.855 84191.6
717.726 86946
720.597 90189
723.468 93287.8
726.339 96952.8
729.21 99919.8
732.081 103018
734.952 106262
737.822 109951
740.693 113900
743.564 117607
746.435 120583
749.306 124981
752.177 127573
755.048 131720
757.919 135451
760.79 139899
763.661 144428
766.531 147509
769.402 152348
772.273 156270
775.144 159950
778.015 164658
780.886 169080
783.757 172974
786.628 176872
789.499 179395
792.37 182480
795.24 186066
798.111 190161
800.982 194504
803.853 199379
806.724 203879
809.595 209020
812.466 214337
815.337 219549
818.208 224324
821.079 228969
823.95 233689
826.82 237845
829.691 243195
832.562 247545
835.433 252263
838.304 256663
841.175 260288
844.046 264191
846.917 268402
849.788 272420
852.659 277211
855.53 280631
858.4 284787
861.271 288948
864.142 292302
867.013 297495
869.884 301589
872.755 305372
875.626 309534
878.497 313562
881.368 318223
884.239 322560
887.109 327651
889.98 333037
892.851 337224
895.722 342210
898.593 347338
901.464 352271
904.335 357733
907.206 362865
910.077 368330
912.948 374313
915.819 379134
918.689 385144
921.56 390975
924.431 396724
927.302 402316
930.173 408334
933.044 415068
935.915 422243
938.786 429152
941.657 437154
944.528 444247
947.398 451740
950.269 460530
953.14 468939
956.011 478584
958.882 488780
961.753 499167
964.624 509874
967.495 521109
970.366 533624
973.237 546297
976.107 558281
978.978 571946
981.849 583858
984.72 595652
987.591 606359
990.462 616899
993.333 625528
996.204 632690
999.075 637588
1001.95 640679
1004.82 639914
1007.69 638015
1010.56 633246
1013.43 625932
1016.3 618313
1019.17 608967
1022.04 599834
1024.91 591102
1027.78 580953
1030.65 569958
1033.53 558989
1036.4 546658
1039.27 534443
1042.14 521940
1045.01 509801
1047.88 497757
1050.75 484929
1053.62 472399
1056.49 459332
1059.36 446834
1062.23 434814
1065.11 422045
1067.98 409493
1070.85 397234
1073.72 384839
1076.59 373672
1079.46 363099
1082.33 353619
1085.2 345085
1088.07 337659
1090.94 330708
1093.81 324782
1096.69 320318
1099.56 317586
1102.43 314873
1105.3 312385
1108.17 310449
1111.04 308811
1113.91 308331
1116.78 307877
1119.65 308097
1122.52 307309
1125.39 307049
1128.27 307014
1131.14 306930
1134.01 306848
1136.88 307344
1139.75 307287
1142.62 306694
1145.49 306046
1148.36 305561
1151.23 304515
1154.1 303560
1156.97 302158
1159.85 300357
1162.72 298544
1165.59 296339
1168.46 294683
1171.33 292302
1174.2 289933
1177.07 287362
1179.94 284550
1182.81 281287
1185.68 277948
1188.55 275212
1191.43 272604
1194.3 269869
1197.17 266953
1200.04 264134
1202.91 261559
1205.78 259658
1208.65 257929
1211.52 256609
1214.39 255150
1217.26 254961
1220.13 254907
1223.01 256533
1225.88 258255
1228.75 260708
1231.62 264037
1234.49 268323
1237.36 273187
1240.23 278471
1243.1 284338
1245.97 290015
1248.84 296192
1251.71 301070
1254.59 304224
1257.46 306415
1260.33 307009
1263.2 307154
1266.07 308338
1268.94 309468
1271.81 310488
1274.68 310792
1277.55 311358
1280.42 311267
1283.29 311151
1286.17 310520
1289.04 309470
1291.91 308776
1294.78 308653
1297.65 307712
1300.52 306937
1303.39 305930
1306.26 305517
1309.13 304402
1312 303290
1314.87 302023
1317.75 301174
1320.62 299640
1323.49 299560
1326.36 299254
1329.23 299358
1332.1 298748
1334.97 297988
1337.84 295653
1340.71 291790
1343.58 292327
1346.45 295431
1349.33 294845
1352.2 293891
1355.07 292961
1357.94 291536
1360.81 289965
1363.68 284790
1366.55 284881
1369.42 289021
1372.29 287182
1375.16 283737
1378.03 282393
1380.91 286290
1383.78 286310
1386.65 284893
1389.52 276989
1392.39 281242
1395.26 277814
1398.13 270804
1401 273466
1403.87 278839
1406.74 277833
1409.61 279580
1412.48 280328
1415.36 278487
1418.23 272881
1421.1 256039
1423.97 267257
1426.84 272944
1429.71 275288
1432.58 270246
1435.45 271217
1438.32 255956
1441.19 263487
1444.06 274476
1446.94 273198
1449.81 266559
1452.68 267884
1455.55 263174
1458.42 238402
1461.29 241165
1464.16 266550
1467.03 258545
1469.9 264331
1472.77 260058
1475.64 242485
1478.52 258432
1481.39 268960
1484.26 269591
1487.13 269336
1490 258581
1492.87 252010
1495.74 262082
1498.61 248794
1501.48 252047
1504.35 257801
1507.22 238776
1510.1 215779
1512.97 248931
1515.84 252354
1518.71 243946
1521.58 237851
1524.45 224049
1527.32 242889
1530.19 248020
1533.06 254685
1535.93 241412
1538.8 243579
1541.68 213164
1544.55 214910
1547.42 237529
1550.29 251442
1553.16 247902
1556.03 239474
1558.9 223338
1561.77 193388
1564.64 235348
1567.51 247773
1570.38 246229
1573.26 237003
1576.13 246223
1579 224643
1581.87 247226
1584.74 250819
1587.61 250532
1590.48 249134
1593.35 246478
1596.22 244426
1599.09 241575
1601.96 239375
1604.84 235006
1607.71 230637
1610.58 225226
1613.45 220159
1616.32 214017
1619.19 194060
1622.06 202964
1624.93 202290
1627.8 200950
1630.67 205284
1633.54 207974
1636.42 201937
1639.29 190807
1642.16 215071
1645.03 217542
1647.9 207804
1650.77 199421
1653.64 204844
1656.51 179069
1659.38 226210
1662.25 233875
1665.12 228448
1668 232859
1670.87 228444
1673.74 222193
1676.61 229696
1679.48 226719
1682.35 234450
1685.22 222882
1688.09 205427
1690.96 236588
1693.83 235645
1696.7 230399
1699.58 205249
1702.45 205400
1705.32 217063
1708.19 229259
1711.06 235957
1713.93 236894
1716.8 227279
1719.67 211903
1722.54 221581
1725.41 238081
1728.28 237702
1731.16 234551
1734.03 224974
1736.9 204853
1739.77 223493
1742.64 224291
1745.51 230074
1748.38 230782
1751.25 226098
1754.12 221154
1756.99 232440
1759.86 230369
1762.74 232408
1765.61 227038
1768.48 233423
1771.35 223467
1774.22 217795
1777.09 217928
1779.96 229079
1782.83 227144
1785.7 226659
1788.57 224810
1791.44 225071
1794.32 216176
1797.19 215613
1800.06 222175
1802.93 218629
1805.8 218578
1808.67 219760
1811.54 217210
1814.41 213393
1817.28 211973
1820.15 205938
1823.02 199967
1825.9 196722
1828.77 190621
1831.64 190051
1834.51 187493
1837.38 190560
1840.25 187991
1843.12 184191
1845.99 178171
1848.86 174813
1851.73 179445
1854.6 178714
1857.48 176999
1860.35 174981
1863.22 172944
1866.09 170851
1868.96 167216
1871.83 163136
1874.7 164236
1877.57 164802
1880.44 163177
1883.31 161333
1886.18 159778
1889.06 157150
1891.93 154731
1894.8 153030
1897.67 152061
1900.54 150759
1903.41 149429
1906.28 147389
1909.15 145360
1912.02 143414
1914.89 141586
1917.76 139199
1920.64 136265
1923.51 135246
1926.38 133941
1929.25 132285
1932.12 129386
1934.99 126692
1937.86 124171
1940.73 121317
1943.6 118514
1946.47 115344
1949.34 114179
1952.21 112091
1955.09 109635
1957.96 107635
1960.83 105146
1963.7 101436
1966.57 99034.1
1969.44 96836.1
1972.31 95179
1975.18 93643.4
1978.05 91857.5
1980.92 90471.2
1983.79 92395.4
1986.67 95548.4
1989.54 97025.3
1992.41 97821.7
1995.28 98495.7
1998.15 99323.7
2001.02 99675.1
2003.89 99164.9
2006.76 97685.9
2009.63 95220.9
2012.5 93380.1
2015.37 92738.9
2018.25 92033.5
2021.12 91658.7
2023.99 91521.4
2026.86 91276.2
2029.73 90888.1
2032.6 90884
2035.47 90724.4
2038.34 91085.7
2041.21 92400
2044.08 94544.1
2046.95 96755.1
2049.83 98380.9
2052.7 100580
2055.57 106176
2058.44 109423
2061.31 111911
2064.18 113377
2067.05 115023
2069.92 116427
2072.79 118284
2075.66 119820
2078.53 121692
2081.41 123921
2084.28 126323
2087.15 128324
2090.02 130031
2092.89 130780
2095.76 130975
2098.63 129457
2101.5 128865
2104.37 129479
2107.24 130103
2110.11 130748
2112.99 131380
2115.86 132461
2118.73 133315
2121.6 133696
2124.47 132970
2127.34 131187
2130.21 128532
2133.08 124875
2135.95 119976
2138.82 114037
2141.69 109775
2144.57 106331
2147.44 103100
2150.31 99913.9
2153.18 96883.4
2156.05 93985.3
2158.92 90237.5
2161.79 84923.7
2164.66 82282.2
2167.53 84879.9
2170.4 87496.7
2173.27 90075.6
2176.15 91543.5
2179.02 91850.6
2181.89 92240.2
2184.76 92263.3
2187.63 92918.1
2190.5 94371.8
2193.37 95707.2
2196.24 97124.8
2199.11 98450.2
2201.98 99366.8
2204.85 100385
2207.73 101587
2210.6 102417
2213.47 103525
2216.34 104187
2219.21 105247
2222.08 106003
2224.95 107053
2227.82 108212
2230.69 109467
2233.56 110600
2236.43 111887
2239.31 113338
2242.18 114894
2245.05 116578
2247.92 118157
2250.79 119741
2253.66 121181
2256.53 122374
2259.4 123418
2262.27 125623
2265.14 128040
2268.01 129757
2270.89 131824
2273.76 134247
2276.63 137284
2279.5 140408
2282.37 144047
2285.24 148462
2288.11 153510
2290.98 159322
2293.85 165304
2296.72 171024
2299.59 175797
2302.47 179656
2305.34 183219
2308.21 186195
2311.08 188893
2313.95 191158
2316.82 193061
2319.69 194992
2322.56 197055
2325.43 200059
2328.3 206964
2331.17 213808
2334.05 211719
2336.92 208795
2339.79 206787
2342.66 206405
2345.53 207991
2348.4 212740
2351.27 220411
2354.14 223540
2357.01 209790
2359.88 195767
2362.75 186615
2365.63 182189
2368.5 181313
2371.37 183720
2374.24 188234
2377.11 193850
2379.98 199290
2382.85 203131
2385.72 204210
2388.59 203075
2391.46 201241
2394.33 198244
2397.21 195182
2400.08 192167
2402.95 189450
2405.82 186452
2408.69 183718
2411.56 180983
2414.43 179105
2417.3 177374
2420.17 175647
2423.04 173961
2425.91 172402
2428.79 170633
2431.66 169285
2434.53 167966
2437.4 166630
2440.27 165934
2443.14 165069
2446.01 164216
2448.88 163558
2451.75 162985
2454.62 162666
2457.49 162714
2460.36 162897
2463.24 162814
2466.11 162678
2468.98 161731
2471.85 160956
2474.72 160209
2477.59 159514
2480.46 158786
2483.33 157889
2486.2 156892
2489.07 156186
2491.95 155442
2494.82 154920
2497.69 154354
2500.56 153901
2503.43 153431
2506.3 152770
2509.17 152178
2512.04 151590
2514.91 151158
2517.78 150683
2520.65 150251
2523.53 149568
2526.4 149271
2529.27 148837
2532.14 148379
2535.01 148333
2537.88 148047
2540.75 147839
2543.62 147765
2546.49 147702
2549.36 147633
2552.23 147582
2555.1 147535
2557.98 147546
2560.85 147980
2563.72 148066
2566.59 148200
2569.46 148865
2572.33 149196
2575.2 149822
2578.07 150380
2580.94 150833
2583.81 151523
2586.68 152604
2589.56 153667
2592.43 154553
2595.3 155985
2598.17 157178
2601.04 158351
2603.91 159897
2606.78 161520
2609.65 163248
2612.52 165159
2615.39 167316
2618.26 169458
2621.14 171943
2624.01 174635
2626.88 177062
2629.75 179833
2632.62 182968
2635.49 186192
2638.36 189546
2641.23 192883
2644.1 196429
2646.97 200203
2649.84 204137
2652.72 207796
2655.59 211691
2658.46 215367
2661.33 219082
2664.2 222216
2667.07 224368
2669.94 225458
2672.81 225400
2675.68 225017
2678.55 224194
2681.42 223502
2684.3 222721
2687.17 222086
2690.04 221528
2692.91 220969
2695.78 220168
2698.65 219394
2701.52 218692
2704.39 217930
2707.26 217253
2710.13 216567
2713 215703
2715.88 214900
2718.75 214414
2721.62 213741
2724.49 213091
2727.36 212256
2730.23 211714
2733.1 211002
2735.97 210425
2738.84 209707
2741.71 208780
2744.58 208226
2747.46 207704
2750.33 207026
2753.2 206226
2756.07 205620
2758.94 204773
2761.81 204253
2764.68 203649
2767.55 202962
2770.42 202213
2773.29 201638
2776.16 201089
2779.04 200380
2781.91 200053
2784.78 199250
2787.65 198562
2790.52 197932
2793.39 197186
2796.26 196561
2799.13 196185
2802 195165
2804.87 194758
2807.74 194202
2810.62 193383
2813.49 193000
2816.36 192174
2819.23 191575
2822.1 191028
2824.97 190424
2827.84 189708
2830.71 189100
2833.58 188333
2836.45 187694
2839.32 187044
2842.2 186161
2845.07 185472
2847.94 184709
2850.81 183881
2853.68 182990
2856.55 181895
2859.42 181121
2862.29 180428
2865.16 179977
2868.03 179628
2870.9 179015
2873.78 178560
2876.65 177862
2879.52 177376
2882.39 176947
2885.26 176457
2888.13 175974
2891 175250
2893.87 174567
2896.74 173597
2899.61 172903
2902.48 172234
2905.36 171780
2908.23 170966
2911.1 170137
2913.97 169269
2916.84 168367
2919.71 167489
2922.58 166618
2925.45 165722
2928.32 164773
2931.19 163983
2934.06 163112
2936.94 162836
2939.81 162581
2942.68 162176
2945.55 161842
2948.42 161419
2951.29 161156
2954.16 160718
2957.03 160148
2959.9 159591
2962.77 158978
2965.64 158235
2968.52 157844
2971.39 157290
2974.26 157050
2977.13 156969
2980 156833
2982.87 156794
2985.74 156288
2988.61 156129
2991.48 155572
2994.35 155139
2997.22 154492
3000.1 154274
3002.97 153844
3005.84 153566
3008.71 152959
3011.58 152430
3014.45 151715
3017.32 150867
3020.19 150317
3023.06 150081
3025.93 149775
3028.8 149087
3031.68 148580
3034.55 148083
3037.42 147225
3040.29 146756
3043.16 146238
3046.03 145715
3048.9 145362
3051.77 144802
3054.64 144097
3057.51 143751
3060.38 143179
3063.26 142765
3066.13 142127
3069 141456
3071.87 140928
3074.74 140706
3077.61 140235
3080.48 139554
3083.35 138767
3086.22 138170
3089.09 137873
3091.96 137573
3094.83 136924
3097.71 136382
3100.58 135663
3103.45 134917
3106.32 134485
3109.19 134149
3112.06 133602
3114.93 133025
3117.8 132478
3120.67 131603
3123.54 131197
3126.41 130835
3129.29 130375
3132.16 129741
3135.03 129313
3137.9 128675
3140.77 128156
3143.64 127529
3146.51 126959
3149.38 126839
3152.25 126151
3155.12 125438
3157.99 124802
3160.87 124502
3163.74 123972
3166.61 123509
3169.48 122767
3172.35 122075
3175.22 121517
3178.09 121129
3180.96 120506
3183.83 119868
3186.7 119464
3189.57 119056
3192.45 118539
3195.32 117961
3198.19 117455
3201.06 116828
3203.93 116199
3206.8 115730
3209.67 115486
3212.54 115039
3215.41 114516
3218.28 114211
3221.15 113589
3224.03 113121
3226.9 112767
3229.77 112589
3232.64 112239
3235.51 111945
3238.38 111454
3241.25 111236
3244.12 110962
3246.99 110725
3249.86 110244
3252.73 110129
3255.61 110045
3258.48 109510
3261.35 109244
3264.22 108919
3267.09 108848
3269.96 108605
3272.83 108021
3275.7 107772
3278.57 107491
3281.44 107334
3284.31 107230
3287.19 106925
3290.06 106443
3292.93 106336
3295.8 105766
3298.67 105297
3301.54 105085
3304.41 104614
3307.28 104306
3310.15 103667
3313.02 103270
3315.89 102985
3318.77 102674
3321.64 102160
3324.51 102020
3327.38 101381
3330.25 100596
3333.12 100009
3335.99 99754.7
3338.86 99346.3
3341.73 98511.8
3344.6 98242
3347.47 97700.9
3350.35 97052.7
3353.22 96610
3356.09 96129
3358.96 95604.7
3361.83 94913.3
3364.7 94348.4
3367.57 93694.2
3370.44 93293.9
3373.31 92551.7
3376.18 92161.6
3379.05 91780.9
3381.93 91178.9
3384.8 90460.3
3387.67 90001.6
3390.54 89359.9
3393.41 88799.8
3396.28 88234.1
3399.15 87504.6
3402.02 87194.1
3404.89 86399.9
3407.76 85923.2
3410.63 85608.2
3413.51 84960.1
3416.38 84456.6
3419.25 83762
3422.12 83234.4
3424.99 82661.1
3427.86 81822.2
3430.73 81581.2
3433.6 81099.7
3436.47 80521.4
3439.34 79788.6
3442.21 79543
3445.09 79252.9
3447.96 78481.1
3450.83 77885
3453.7 77240.7
3456.57 77107
3459.44 76579.8
3462.31 76049.1
3465.18 75518.6
3468.05 75137.6
3470.92 74616
3473.79 74014.3
3476.67 73805.4
3479.54 73444.4
3482.41 72976.7
3485.28 72738.9
3488.15 71883.5
3491.02 71664.4
3493.89 71256.4
3496.76 71066.2
3499.63 70590.7
3502.5 69953.2
3505.37 69778.1
3508.25 68968
3511.12 68620.4
3513.99 68724.1
3516.86 68168.8
3519.73 68372.5
3522.6 68214.8
3525.47 67866.9
3528.34 67378.9
3531.21 66841.2
3534.08 66853.7
3536.95 66836.1
3539.83 67015.9
3542.7 66828
3545.57 66785.9
3548.44 66682.3
3551.31 65828.4
3554.18 65684.8
3557.05 66229.4
3559.92 66023.6
3562.79 66608.3
3565.66 66179.6
3568.53 66105.9
3571.41 65358.8
3574.28 63206.7
3577.15 65891.9
3580.02 66957.4
3582.89 66966
3585.76 66937.9
3588.63 67110.1
3591.5 66449.2
3594.37 64068.1
3597.24 66592.1
3600.11 67346.7
3602.98 67252.2
3605.86 68057.3
3608.73 68463
3611.6 69350.7
3614.47 67247.1
3617.34 67331.8
3620.21 67843.4
3623.08 69502.5
3625.95 67352
3628.82 70039.1
3631.69 71873.5
3634.56 67127.6
3637.44 66853.1
3640.31 72271.8
3643.18 73483.3
3646.05 73777.9
3648.92 73562.6
3651.79 72923.5
3654.66 67266.9
3657.53 65817.7
3660.4 72528.3
3663.27 70748.1
3666.15 73810.3
3669.02 74147.6
3671.89 74177.3
3674.76 71287.1
3677.63 66061.5
3680.5 68225.5
3683.37 64639.3
3686.24 71271.7
3689.11 72814.4
3691.98 72994
3694.85 67221.1
3697.72 67553.3
3700.6 72135.8
3703.47 73418.3
3706.34 73142.6
3709.21 70801.8
3712.08 72583.2
3714.95 71540.9
3717.82 67390.9
3720.69 68498.5
3723.56 72286.9
3726.43 71688.9
3729.3 70396.3
3732.18 69730.6
3735.05 70170.7
3737.92 68739.5
3740.79 65046.8
3743.66 63732.7
3746.53 68435.6
3749.4 66631.1
3752.27 59409.7
3755.14 64692.9
3758.01 60631
3760.88 66206.9
3763.76 70274.7
3766.63 69336.8
3769.5 71462
3772.37 70720.7
3775.24 70396.6
3778.11 69783.8
3780.98 72433.3
3783.85 72195.3
3786.72 70378.1
3789.59 71867.2
3792.46 71558
3795.34 71917.8
3798.21 71747.4
3801.08 71060
3803.95 68744.6
3806.82 67169.7
3809.69 63941.8
3812.56 67302.5
3815.43 66258.6
3818.3 70153.4
3821.17 68026.4
3824.04 63693.5
3826.92 65281.6
3829.79 64078.2
3832.66 68072.4
3835.53 67946.1
3838.4 66668.9
3841.27 65713.7
3844.14 61905.6
3847.01 62523.2
3849.88 65261.8
3852.75 66569.5
3855.62 67384.1
3858.5 61930.3
3861.37 53640.8
3864.24 63332.4
3867.11 65754.1
3869.98 64083.2
3872.85 62979.3
3875.72 62458.6
3878.59 61206.7
3881.46 63366
3884.33 65100.4
3887.2 62774.2
3890.08 63503
3892.95 60986
3895.82 63625.2
3898.69 61511.7
3901.56 63508.3
3904.43 63144.4
3907.3 60020.4
3910.17 59043.6
3913.04 60582
3915.91 63417.2
3918.78 63429.2
3921.66 62978.2
3924.53 61153.6
3927.4 61509.8
3930.27 61675.1
3933.14 61213.3
3936.01 61575
3938.88 60388.4
3941.75 60799.1
3944.62 61225.4
3947.49 60815
3950.36 59937.1
3953.24 60182
3956.11 59624.8
3958.98 59675.2
3961.85 59754.3
3964.72 59355.6
3967.59 59318.5
3970.46 58925.3
3973.33 58729.3
3976.2 58490.1
3979.07 58294.9
3981.94 57996.3
3984.82 57917
3987.69 57677.8
3990.56 57343.9
3993.43 57178.3
3996.3 57016.8
3999.17 56638.5
4002.04 56369.5
4004.91 56259
4007.78 55991.1
4010.65 55762.6
4013.52 55466.1
4016.4 55113.3
4019.27 54939.9
4022.14 54920
4025.01 54718.8
4027.88 54455.8
4030.75 54101.7
4033.62 53780.7
4036.49 53763.3
4039.36 53536.6
4042.23 53218.7
4045.1 53285.5
4047.98 53014.5
4050.85 52699.7
4053.72 52456.9
4056.59 52338.7
4059.46 52287.3
4062.33 51924
4065.2 51728.1
4068.07 51630.4
4070.94 51479.8
4073.81 51332.9
4076.68 51250.8
4079.56 50894
4082.43 50761.8
4085.3 50642.2
4088.17 50426.5
4091.04 50196.6
4093.91 50176.1
4096.78 50018.7
4099.65 49901.4
4102.52 49586.6
4105.39 49502.2
4108.26 49474.1
4111.14 49355.3
4114.01 49059.8
4116.88 48959
4119.75 48885.8
4122.62 48569.9
4125.49 48423.2
4128.36 48400.3
4131.23 48421.3
4134.1 48401.4
4136.97 48131.4
4139.84 47941
4142.72 47917.9
4145.59 47773.1
4148.46 47544.1
4151.33 47577
4154.2 47448.5
4157.07 47212.9
4159.94 47262.7
4162.81 47184.4
4165.68 46990.1
4168.55 46939.7
4171.42 46914.8
4174.3 46758.4
4177.17 46725.3
4180.04 46673.3
4182.91 46676.4
4185.78 46483.1
4188.65 46341.3
4191.52 46255.5
4194.39 46110.8
4197.26 46154.1
4200.13 46174.4
4203 46051.7
4205.87 45965.4
4208.75 45967.2
4211.62 45707.5
4214.49 45882.4
4217.36 45810.8
4220.23 45702.7
4223.1 45717.9
4225.97 45441.4
4228.84 45449.9
4231.71 45523.8
4234.58 45518.3
4237.45 45498.2
4240.33 45477.2
4243.2 45428.9
4246.07 45254.8
4248.94 45186.3
4251.81 45209
4254.68 45226.5
4257.55 45068.2
4260.42 45134.2
4263.29 45135.1
4266.16 45064.5
4269.03 45096.9
4271.91 45063.8
4274.78 44843.4
4277.65 44999.2
4280.52 44879.7
4283.39 44866.9
4286.26 44844.1
4289.13 45021.8
4292 45028.3
4294.87 45029.5
4297.74 44942.7
4300.61 44867.3
4303.49 44741.4
4306.36 44716.4
4309.23 44541.6
4312.1 44512.2
4314.97 44764.8
4317.84 44800.8
4320.71 44579.9
4323.58 44654.3
4326.45 44611
4329.32 44686.3
4332.19 44660.1
4335.07 44439.7
4337.94 44346.8
4340.81 44451.1
4343.68 44466.8
4346.55 44347
4349.42 44419.5
4352.29 44329.4
4355.16 44300.9
4358.03 44252.2
4360.9 44218.8
4363.77 44300.2
4366.65 44432.9
4369.52 44409
4372.39 44191.1
4375.26 44211.9
4378.13 44083.8
4381 43963.4
4383.87 43786.8
4386.74 43742.2
4389.61 43703.8
4392.48 43762.8
4395.35 43815.7
4398.23 43667.2
4401.1 43567.1
4403.97 43591.4
4406.84 43621.5
4409.71 43555.3
4412.58 43473.5
4415.45 43374.3
4418.32 43352.8
4421.19 43303.5
4424.06 43059.5
4426.93 43070.7
4429.81 42995.1
4432.68 43006.7
4435.55 42780.8
4438.42 42750.4
4441.29 42658.1
4444.16 42606.2
4447.03 42471
4449.9 42379.5
4452.77 42320.8
4455.64 42070.8
4458.51 42044.3
4461.39 41763
4464.26 41730.8
4467.13 41621.1
4470 41564.1
4472.87 41167.8
4475.74 41239
4478.61 41198.6
4481.48 40963.7
4484.35 40725.9
4487.22 40619.4
4490.09 40382.1
4492.97 40209.1
4495.84 40040.4
4498.71 39869.8
4501.58 39785.8
4504.45 39829.8
4507.32 39513.8
4510.19 39180.9
4513.06 39019.1
4515.93 38812.3
4518.8 38707.9
4521.67 38574.8
4524.55 38232.8
4527.42 37969
4530.29 37785.8
4533.16 37590.4
4536.03 37310
4538.9 37052.2
4541.77 36855.5
4544.64 36597.3
4547.51 36357.9
4550.38 36214.6
4553.25 35920.7
4556.13 35653.5
4559 35448
4561.87 35080.6
4564.74 34872.3
4567.61 34661.4
4570.48 34335.5
4573.35 34084.7
4576.22 33802.2
4579.09 33492.8
4581.96 33116.2
4584.83 32881
4587.71 32625.6
4590.58 32491.1
4593.45 32145
4596.32 31729.3
4599.19 31446.3
4602.06 31034.7
4604.93 30754.8
4607.8 30501.3
4610.67 30252
4613.54 29815.7
4616.41 29550
4619.29 29156.6
4622.16 28890.2
4625.03 28759.5
4627.9 28439.9
4630.77 27940.6
4633.64 27576.1
4636.51 27274.7
4639.38 26922.2
4642.25 26740.7
4645.12 26499.1
4647.99 25995.7
4650.87 25715.3
4653.74 25444
4656.61 24974.2
4659.48 24604.7
4662.35 24321.1
4665.22 23966.6
4668.09 23587.3
4670.96 23283.3
4673.83 22919
4676.7 22753.2
4679.57 22485.2
4682.45 22107
4685.32 21593.8
4688.19 21285
4691.06 21020.3
4693.93 20819.9
4696.8 20416.9
4699.67 20127.3
4702.54 19758.6
4705.41 19338
4708.28 18902.4
4711.15 18468.1
4714.03 18279.4
4716.9 18069.4
4719.77 17765.7
4722.64 17495.1
4725.51 17199.4
4728.38 16735.3
4731.25 16516.5
4734.12 16317.4
4736.99 15948.6
4739.86 15675.2
4742.73 15347
4745.6 14977.6
4748.48 14727.6
4751.35 14466.6
4754.22 14270.7
4757.09 13856.1
4759.96 13662.2
4762.83 13444.9
4765.7 13048.1
4768.57 12669.4
4771.44 12507.9
4774.31 12287.5
4777.18 11926.2
4780.06 11621.3
4782.93 11328.2
4785.8 11244.3
4788.67 10861.2
4791.54 10598
4794.41 10443.1
4797.28 10081
4800.15 9894.51
4803.02 9597.18
4805.89 9423.89
4808.76 9233.17
4811.64 8976.22
4814.51 8760.29
4817.38 8474.45
4820.25 8332.4
4823.12 8292.63
4825.99 7987.27
4828.86 7819.68
4831.73 7517.99
4834.6 7283.37
4837.47 7215.69
4840.34 6992.28
4843.22 6854.76
4846.09 6675.72
4848.96 6480.54
4851.83 6350.81
4854.7 6140
4857.57 5923.52
4860.44 5549.98
4863.31 5633.71
4866.18 5472.18
4869.05 5441.95
4871.92 5270.9
4874.8 4918.84
4877.67 5004.35
4880.54 4791.23
4883.41 4666.44
4886.28 4459.91
4889.15 4319.51
4892.02 4158.06
4894.89 4087.36
4897.76 4046.21
4900.63 3995.75
4903.5 3754.07
4906.38 3580.64
4909.25 3623.74
4912.12 3588.4
4914.99 3356.09
4917.86 3419.46
4920.73 3163.9
4923.6 2976.63
4926.47 2883.89
4929.34 2861.66
4932.21 2915.63
4935.08 2650.54
4937.96 2489.97
4940.83 2474.86
4943.7 2537.16
4946.57 2369.3
4949.44 2351.04
4952.31 2349.92
4955.18 2291.3
4958.05 2089.09
4960.92 2062.52
4963.79 1883.5
4966.67 2007.96
4969.54 1902.65
4972.41 1737.79
4975.28 1685.66
4978.15 1610.12
4981.02 1602.2
4983.89 1582.26
4986.76 1610.96
4989.63 1485.63
4992.5 1454.18
4995.37 1312.26
4998.24 1339.95
5001.12 1408.84
5003.99 1205.21
5006.86 1251.97
5009.73 1153.6
5012.6 993.418
5015.47 1112.1
5018.34 1044.26
5021.21 1174.49
5024.08 1039.53
5026.95 1053.63
5029.82 781.063
5032.7 884.105
5035.57 927.531
5038.44 822.349
5041.31 808.005
5044.18 744.22
5047.05 594.631
5049.92 535.504
5052.79 737.913
5055.66 808.235
5058.53 729.399
5061.4 585.38
5064.28 633.919
5067.15 592.569
5070.02 383.451
5072.89 403.122
5075.76 508.097
5078.63 488.218
5081.5 343.237
5084.37 462.572
5087.24 481.25
5090.11 423.128
5092.98 465.417
5095.86 345.259
5098.73 320.9
5101.6 388.758
5104.47 460.262
5107.34 346.103
5110.21 418.462
5113.08 339.049
5115.95 347.203
5118.82 338.387
5121.69 442.813
5124.56 348.19
5127.44 288.759
5130.31 267.781
5133.18 331.165
5136.05 369.118
5138.92 463.209
5141.79 486.573
5144.66 380.786
5147.53 332.619
5150.4 415.445
5153.27 341.59
5156.14 348.463
5159.02 413.107
5161.89 339.751
5164.76 328.739
5167.63 416.784
5170.5 406.313
5173.37 453.677
5176.24 414.112
5179.11 351.795
5181.98 398.02
5184.85 342.097
5187.72 347.236
5190.6 434.546
5193.47 518.549
5196.34 472.361
5199.21 347.257
5202.08 426.602
5204.95 492.631
5207.82 508.322
5210.69 410.283
5213.56 532.24
5216.43 415.469
5219.3 518.13
5222.18 510.937
5225.05 627.742
5227.92 447.585
5230.79 396.167
5233.66 458.907
5236.53 536.318
5239.4 468.54
5242.27 576.581
5245.14 500.41
5248.01 423.078
5250.88 483.013
5253.75 495.91
5256.63 430.617
5259.5 541.861
5262.37 479.789
5265.24 516.877
5268.11 516.884
5270.98 597.598
5273.85 538.945
5276.72 508.447
5279.59 580.097
5282.46 534.515
5285.33 536.455
5288.21 624.071
5291.08 559.062
5293.95 539.782
5296.82 529.311
5299.69 610.726
5302.56 558.352
5305.43 591.48
5308.3 582.03
5311.17 729.173
5314.04 721.56
5316.92 603.406
5319.79 564.701
5322.66 667.44
5325.53 695.511
5328.4 696.81
5331.27 601.06
5334.14 671.42
5337.01 669.922
5339.88 676.054
5342.75 580.15
5345.62 584.226
5348.5 622.136
5351.37 626.153
5354.24 599.32
5357.11 520.099
5359.98 682.48
5362.85 617.108
5365.72 713.004
5368.59 751.878
5371.46 683.036
5374.33 736.169
5377.2 730.09
5380.07 751.666
5382.95 661.192
5385.82 537.515
5388.69 562.627
5391.56 561.547
5394.43 508.825
5397.3 665.053
5400.17 710.149
5403.04 627.044
5405.91 599.125
5408.78 672.761
5411.65 583.369
5414.53 595.567
5417.4 558.726
5420.27 722.229
5423.14 791.124
5426.01 701.844
5428.88 636.995
5431.75 671.454
5434.62 553.41
5437.49 550.504
5440.36 592.078
5443.23 559.291
5446.11 488.023
5448.98 539.131
5451.85 474.998
5454.72 625.454
5457.59 631.168
5460.46 439.994
5463.33 458.544
5466.2 588.667
5469.07 621.613
5471.94 691.89
5474.81 590.975
5477.69 565.231
5480.56 408.536
5483.43 538.647
5486.3 508.201
5489.17 506.96
5492.04 583.95
5494.91 643.814
5497.78 511.869
5500.65 462.613
5503.52 406.997
5506.4 439.427
5509.27 527.488
5512.14 576.06
5515.01 517.983
5517.88 653.944
5520.75 567.476
5523.62 513.032
5526.49 640.251
5529.36 624.642
5532.23 495.761
5535.1 511.862
5537.97 420.207
5540.85 449.97
5543.72 467.213
5546.59 600.407
5549.46 591.561
5552.33 513.229
5555.2 536.561
5558.07 397.015
5560.94 441.7
5563.81 614.885
5566.68 578.7
5569.55 496.606
5572.43 475.032
5575.3 505.635
5578.17 598.761
5581.04 579.5
5583.91 654.307
5586.78 644.433
5589.65 437.92
5592.52 423.666
5595.39 507.76
5598.26 444.117
5601.13 549.775
5604.01 568.706
5606.88 580.184
5609.75 517.041
5612.62 464.045
5615.49 428.288
5618.36 531.109
5621.23 557.151
5624.1 478.447
5626.97 453.694
5629.84 485.797
5632.71 568.507
5635.59 549.551
5638.46 548.333
5641.33 540.206
5644.2 430.484
5647.07 499.673
5649.94 606.393
5652.81 553.666
5655.68 476.625
5658.55 559.8
5661.42 503.679
5664.29 486.027
5667.17 546.182
5670.04 607.194
5672.91 538.089
5675.78 472.946
5678.65 539.557
5681.52 515.432
5684.39 411.896
5687.26 459.256
5690.13 414.008
5693 458.478
5695.87 486.78
5698.75 476.407
5701.62 518.939
5704.49 585.168
5707.36 511.991
5710.23 505.561
5713.1 512.952
5715.97 443.04
5718.84 593.392
5721.71 554.064
5724.58 436.925
5727.45 402.944
5730.33 484.529
5733.2 358.109
5736.07 544.817
5738.94 496.095
5741.81 592.566
5744.68 522.358
5747.55 452.838
5750.42 399.037
5753.29 385.27
5756.16 393.363
5759.03 444.023
5761.9 486.144
5764.78 507.171
5767.65 453.422
5770.52 482.616
5773.39 459.428
5776.26 421.555
5779.13 546.382
5782 550.561
5784.87 407.733
5787.74 521.719
5790.61 550.864
5793.48 452.765
5796.36 354.51
5799.23 391.13
5802.1 534.78
5804.97 473.146
5807.84 567.295
5810.71 452.958
5813.58 441.601
5816.45 443.629
5819.32 516.877
5822.19 550.654
5825.06 529.269
5827.94 363.893
5830.81 346.08
5833.68 367.946
5836.55 501.074
5839.42 526.948
5842.29 417.44
5845.16 429.177
5848.03 423.606
5850.9 533.388
5853.77 513.215
5856.65 594.737
5859.52 450.416
5862.39 394.318
5865.26 502.557
5868.13 401.736
5871 345.212
5873.87 482.354
5876.74 398.686
