scanname 扫描250
timestamp 1/1/1970 00:14
scancount 1
laserwavenum 850.5
measurementstate Unknown
scanmode Identification
snr 6.22887 6.22887 6.22887
replacelist 0
peaks 18
735.554 0.128008 0 2.04432 0.000422144
753.257 0.120686 0 2.94868 0.00043849
773.528 0.0986715 0 2.74632 0.000319638
801.739 0.113156 0 6.17168 0.000482252
829.47 0.107364 0 5.64625 0.000360231
846.722 0.114236 0 9.31652 0.000489505
907.831 0.0980513 0 9.34824 0.000333882
942.966 0.0786603 0 7.05151 0.000204613
981.279 0.0609055 0 1.13635 4.11542e-05
1036.38 0.0827212 0 3.69005 9.50768e-05
1159.17 0.101557 0 6.21264 0.000248068
1191.44 0.0920248 0 2.80534 0.00014084
1342.58 0.232116 0 10.1325 0.000445369
1403.26 0.0918856 0 2.13042 0.000102761
1468.47 0.133874 0 4.23527 0.000192044
1535.53 0.255211 0 5.99346 0.000340669
1597.11 0.0726657 0 3.61842 0.000155593
3086.1 0.0726998 0 2.10313 0.000127218
finalresult No match found 1A12650	3.05509e-19
spectrum 2048
0 -6.43571
2.86447 -6.14031
5.72895 -4.04965
8.59342 -4.95702
11.4579 -2.52443
14.3224 2.38648
17.1868 -1.86283
20.0513 4.60729
22.9158 6.142
25.7803 1.09524
28.6447 2.10524
31.5092 10.6201
34.3737 0.756134
37.2382 -1.0355
40.1026 1.60782
42.9671 0.674239
45.8316 4.39559
48.696 1.22707
51.5605 0.117571
54.425 3.23376
57.2895 4.73235
60.1539 4.29958
63.0184 -0.262498
65.8829 -0.155731
68.7474 2.35497
71.6118 -2.99309
74.4763 -3.22432
77.3408 4.48436
80.2053 -2.23407
83.0697 0.99283
85.9342 -0.479956
88.7987 1.1622
91.6632 5.43278
94.5276 -0.969565
97.3921 2.04885
100.257 1.95869
103.121 0.160474
105.986 3.05075
108.85 2.99825
111.714 1.44094
114.579 6.70711
117.443 0.484641
120.308 -0.111055
123.172 2.85108
126.037 0.981707
128.901 -1.76202
131.766 -0.664379
134.63 1.0123
137.495 -5.03971
140.359 -2.4811
143.224 -0.858273
146.088 -1.33131
148.953 0.540444
151.817 -1.74946
154.682 1.30933
157.546 1.88005
160.411 -1.27919
163.275 2.88951
166.139 -0.444399
169.004 -0.109926
171.868 1.48693
174.733 -3.46239
177.597 -0.1653
180.462 -2.21057
183.326 2.57587
186.191 0.947966
189.055 1.1635
191.92 3.07862
194.784 1.80451
197.649 2.35068
200.513 1.87562
203.378 8.09984
206.242 -2.79194
209.107 -0.760172
211.971 0.718255
214.836 0.696918
217.7 2.47402
220.564 -0.926758
223.429 3.80909
226.293 2.01124
229.158 3.35008
232.022 -0.529379
234.887 5.7886
237.751 -1.78179
240.616 2.39747
243.48 -0.0863762
246.345 0.311232
249.209 5.23033
252.074 3.59887
254.938 -0.817004
257.803 1.12509
260.667 2.25273
263.532 0.659785
266.396 4.78868
269.26 0.650432
272.125 0.762163
274.989 -2.83778
277.854 -2.0651
280.718 4.12475
283.583 0.142061
286.447 -0.967663
289.312 -1.2103
292.176 -1.53011
295.041 2.37334
297.905 0.403885
300.77 -1.93504
303.634 -2.32075
306.499 -1.99311
309.363 -0.474551
312.228 3.79632
315.092 5.72348
317.957 1.30629
320.821 -1.39683
323.686 1.29485
326.55 -2.15942
329.414 -2.56858
332.279 0.98333
335.143 2.41034
338.008 5.06669
340.872 -0.558059
343.737 1.59798
346.601 9.80664
349.466 3.34045
352.33 0.848202
355.195 1.95886
358.059 2.5112
360.924 1.55427
363.788 -1.06516
366.653 4.85367
369.517 -1.88804
372.382 -1.38201
375.246 4.66497
378.111 -0.0177876
380.975 2.41893
383.839 -2.29623
386.704 -1.08145
389.568 2.50165
392.433 0.959439
395.297 -0.588555
398.162 0.206382
401.026 -0.838188
403.891 0.489412
406.755 3.44312
409.62 -0.869172
412.484 -2.35013
415.349 -0.0237639
418.213 4.93828
421.078 -2.35488
423.942 -0.834525
426.807 7.49421
429.671 -2.00094
432.535 -0.606004
435.4 2.26091
438.264 -1.21249
441.129 0.409984
443.993 0.537175
446.858 2.556
449.722 -3.95069
452.587 -1.78152
455.451 0.443574
458.316 -1.24045
461.18 2.42939
464.045 1.51703
466.909 7.04544
469.774 2.08307
472.638 -0.78725
475.503 3.07871
478.367 -0.129956
481.232 4.51796
484.096 2.02144
486.961 0.256455
489.825 1.3376
492.689 2.69883
495.554 -2.89188
498.418 -0.999103
501.283 -0.165208
504.147 -1.47569
507.012 1.04702
509.876 -0.844564
512.741 -1.31567
515.605 -0.601353
518.47 2.1517
521.334 2.95481
524.199 -0.246668
527.063 3.19685
529.928 2.54997
532.792 0.642766
535.657 7.21551
538.521 0.872277
541.385 4.14868
544.25 1.52012
547.115 1.28401
549.979 3.87156
552.843 -1.10306
555.708 -1.3381
558.572 2.63893
561.437 1.46577
564.301 1.256
567.166 -0.704513
570.03 4.45803
572.895 3.95858
575.759 3.64603
578.624 1.41178
581.488 0.0166463
584.353 -1.78246
587.217 -1.58321
590.082 9.59636
592.946 2.12688
595.81 1.98901
598.675 0.623571
601.539 1.2027
604.404 1.0339
607.268 1.41892
610.133 0.105856
612.997 0.292572
615.862 0.127746
618.726 0.435219
621.591 0.147344
624.455 0.0276335
627.32 0.815283
630.184 0.814373
633.049 1.21736
635.913 0.761057
638.778 1.13942
641.642 1.27712
644.507 1.32896
647.371 0.808377
650.235 0.579591
653.1 0.642941
655.964 0.679278
658.829 0.826707
661.693 0.660112
664.558 0.948074
667.422 0.71289
670.287 0.91165
673.151 0.793243
676.016 0.915775
678.88 0.899993
681.745 1.02834
684.609 0.999459
687.474 1.08751
690.338 1.0744
693.203 1.07517
696.067 1.22699
698.932 1.23972
701.796 0.783951
704.66 0.604603
707.525 0.760243
710.389 0.639912
713.254 0.743527
716.118 0.679771
718.983 0.743706
721.847 0.836843
724.712 0.814333
727.576 0.922537
730.441 1.06067
733.305 1.35818
736.17 1.60289
739.034 1.20162
741.899 0.80325
744.763 0.822194
747.628 0.83293
750.492 1.03496
753.357 1.32689
756.221 1.49377
759.086 1.05178
761.95 0.676009
764.814 0.651118
767.679 0.729178
770.543 0.881778
773.408 1.1766
776.272 1.15022
779.137 0.73747
782.001 0.682579
784.866 0.61437
787.73 0.603191
790.595 0.661891
793.459 0.723951
796.324 0.80488
799.188 0.969261
802.053 1.30016
804.917 1.47128
807.782 0.743618
810.646 0.562065
813.51 0.557808
816.375 0.594816
819.239 0.646404
822.104 0.711094
824.968 0.858387
827.833 1.05292
830.697 1.3801
833.562 1.10582
836.426 0.733865
839.291 0.710612
842.155 0.837009
845.02 1.24546
847.884 1.54048
850.749 1.03607
853.613 0.636521
856.478 0.529393
859.342 0.5313
862.207 0.515036
865.071 0.518453
867.935 0.517882
870.8 0.53119
873.664 0.552134
876.529 0.580798
879.393 0.566826
882.258 0.570983
885.122 0.598309
887.987 0.598956
890.851 0.633774
893.716 0.655487
896.58 0.669495
899.445 0.692207
902.309 0.748593
905.174 0.858441
908.038 1.0009
910.903 1.17348
913.767 0.916719
916.632 0.584846
919.496 0.527514
922.36 0.521359
925.225 0.5077
928.089 0.52956
930.954 0.546108
933.818 0.584832
936.683 0.63655
939.547 0.728687
942.412 0.808953
945.276 0.868808
948.141 0.741367
951.005 0.605316
953.87 0.541253
956.734 0.550996
959.599 0.534135
962.463 0.536547
965.328 0.54792
968.192 0.541131
971.057 0.561176
973.921 0.573315
976.785 0.606896
979.65 0.640404
982.514 0.605896
985.379 0.571011
988.243 0.587879
991.108 0.58039
993.972 0.598187
996.837 0.593675
999.701 0.6111
1002.57 0.609444
1005.43 0.616495
1008.29 0.636544
1011.16 0.625833
1014.02 0.643348
1016.89 0.65039
1019.75 0.660191
1022.62 0.694113
1025.48 0.725192
1028.35 0.751003
1031.21 0.797062
1034.07 0.821805
1036.94 0.829793
1039.8 0.832532
1042.67 0.779117
1045.53 0.746189
1048.4 0.689375
1051.26 0.686527
1054.13 0.666926
1056.99 0.646679
1059.86 0.645297
1062.72 0.647677
1065.58 0.651625
1068.45 0.653976
1071.31 0.64231
1074.18 0.644161
1077.04 0.670199
1079.91 0.657379
1082.77 0.677307
1085.64 0.663137
1088.5 0.689322
1091.36 0.664945
1094.23 0.670489
1097.09 0.694605
1099.96 0.677098
1102.82 0.69816
1105.69 0.698643
1108.55 0.687744
1111.42 0.698382
1114.28 0.725863
1117.14 0.71837
1120.01 0.736893
1122.87 0.722683
1125.74 0.751252
1128.6 0.739126
1131.47 0.783221
1134.33 0.823427
1137.2 0.802462
1140.06 0.76939
1142.92 0.7762
1145.79 0.794096
1148.65 0.790774
1151.52 0.81173
1154.38 0.883634
1157.25 0.991606
1160.11 1.17107
1162.98 1.06911
1165.84 0.748855
1168.71 0.721502
1171.57 0.705259
1174.43 0.72533
1177.3 0.768207
1180.16 0.763997
1183.03 0.807293
1185.89 0.849245
1188.76 0.907857
1191.62 0.899301
1194.49 0.953362
1197.35 0.90312
1200.21 0.769292
1203.08 0.731845
1205.94 0.764592
1208.81 0.776072
1211.67 0.813402
1214.54 0.804657
1217.4 0.753366
1220.27 0.79374
1223.13 0.802395
1225.99 0.821021
1228.86 0.849354
1231.72 0.858093
1234.59 0.867229
1237.45 0.878337
1240.32 0.883221
1243.18 0.900671
1246.05 0.936269
1248.91 0.946227
1251.78 0.984468
1254.64 0.94286
1257.5 0.940294
1260.37 0.931377
1263.23 0.961895
1266.1 0.989409
1268.96 1.01537
1271.83 1.0285
1274.69 1.05223
1277.56 1.07583
1280.42 1.10828
1283.28 1.12809
1286.15 1.16567
1289.01 1.21102
1291.88 1.21666
1294.74 1.25969
1297.61 1.26205
1300.47 1.3099
1303.34 1.35898
1306.2 1.39211
1309.06 1.45289
1311.93 1.48772
1314.79 1.50345
1317.66 1.57678
1320.52 1.65856
1323.39 1.70751
1326.25 1.77034
1329.12 1.79399
1331.98 1.90105
1334.84 1.98529
1337.71 2.12825
1340.57 2.27245
1343.44 2.39521
1346.3 2.35939
1349.17 2.10636
1352.03 1.8479
1354.9 1.66223
1357.76 1.51021
1360.62 1.31427
1363.49 1.17627
1366.35 1.08382
1369.22 1.04676
1372.08 0.991953
1374.95 0.949732
1377.81 0.886504
1380.68 0.871011
1383.54 0.930024
1386.41 0.967697
1389.27 0.949905
1392.13 0.876219
1395 0.854297
1397.86 0.872604
1400.73 0.905424
1403.59 0.927092
1406.46 0.947144
1409.32 0.879705
1412.19 0.800113
1415.05 0.761905
1417.91 0.718389
1420.78 0.735939
1423.64 0.752838
1426.51 0.823233
1429.37 0.825123
1432.24 0.876113
1435.1 0.86364
1437.97 0.878489
1440.83 0.875263
1443.69 0.910501
1446.56 0.931429
1449.42 0.974186
1452.29 1.01754
1455.15 1.0672
1458.02 1.10472
1460.88 1.14635
1463.75 1.23114
1466.61 1.31969
1469.47 1.46721
1472.34 1.37481
1475.2 1.18987
1478.07 1.13806
1480.93 1.17788
1483.8 1.24076
1486.66 1.29506
1489.53 1.33749
1492.39 1.4158
1495.26 1.47799
1498.12 1.50003
1500.98 1.64624
1503.85 1.69863
1506.71 1.68206
1509.58 1.82585
1512.44 1.92623
1515.31 2.00691
1518.17 2.10035
1521.04 2.10999
1523.9 2.21873
1526.76 2.31077
1529.63 2.41624
1532.49 2.44932
1535.36 2.596
1538.22 2.61911
1541.09 2.39576
1543.95 2.29547
1546.82 2.08264
1549.68 1.89508
1552.54 1.7305
1555.41 1.56027
1558.27 1.31535
1561.14 1.18303
1564 1.10864
1566.87 0.967773
1569.73 0.801177
1572.6 0.689925
1575.46 0.557633
1578.33 0.497272
1581.19 0.509683
1584.05 0.517926
1586.92 0.557196
1589.78 0.639983
1592.65 0.732434
1595.51 0.740687
1598.38 0.659745
1601.24 0.649416
1604.11 0.71749
1606.97 0.615615
1609.83 0.435207
1612.7 0.367595
1615.56 0.311724
1618.43 0.294438
1621.29 0.294196
1624.16 0.294163
1627.02 0.309034
1629.89 0.292665
1632.75 0.298998
1635.61 0.268848
1638.48 0.295096
1641.34 0.290074
1644.21 0.282264
1647.07 0.298939
1649.94 0.298529
1652.8 0.298692
1655.67 0.31434
1658.53 0.306462
1661.39 0.306732
1664.26 0.312347
1667.12 0.307229
1669.99 0.310223
1672.85 0.28934
1675.72 0.300354
1678.58 0.297459
1681.45 0.304881
1684.31 0.309139
1687.18 0.304455
1690.04 0.309652
1692.9 0.335932
1695.77 0.323723
1698.63 0.337148
1701.5 0.32908
1704.36 0.312918
1707.23 0.321029
1710.09 0.296886
1712.96 0.324358
1715.82 0.329913
1718.68 0.300725
1721.55 0.29393
1724.41 0.297994
1727.28 0.32778
1730.14 0.326131
1733.01 0.312812
1735.87 0.313277
1738.74 0.323218
1741.6 0.322422
1744.46 0.329305
1747.33 0.313385
1750.19 0.312347
1753.06 0.318238
1755.92 0.328375
1758.79 0.334728
1761.65 0.303655
1764.52 0.320172
1767.38 0.310815
1770.24 0.303627
1773.11 0.29972
1775.97 0.322003
1778.84 0.31436
1781.7 0.337598
1784.57 0.334911
1787.43 0.334497
1790.3 0.321051
1793.16 0.339721
1796.02 0.350249
1798.89 0.312008
1801.75 0.32455
1804.62 0.312093
1807.48 0.325091
1810.35 0.326668
1813.21 0.322958
1816.08 0.309864
1818.94 0.339318
1821.81 0.342636
1824.67 0.325558
1827.53 0.329318
1830.4 0.330366
1833.26 0.333756
1836.13 0.298746
1838.99 0.337542
1841.86 0.313798
1844.72 0.36028
1847.59 0.339515
1850.45 0.328965
1853.31 0.327372
1856.18 0.321558
1859.04 0.296573
1861.91 0.3042
1864.77 0.295807
1867.64 0.302348
1870.5 0.332264
1873.37 0.302225
1876.23 0.319789
1879.09 0.326857
1881.96 0.355903
1884.82 0.32229
1887.69 0.326467
1890.55 0.325761
1893.42 0.331921
1896.28 0.318667
1899.15 0.324995
1902.01 0.330458
1904.87 0.293236
1907.74 0.29896
1910.6 0.289446
1913.47 0.299908
1916.33 0.283277
1919.2 0.32035
1922.06 0.320256
1924.93 0.280287
1927.79 0.28126
1930.66 0.291307
1933.52 0.328095
1936.38 0.31617
1939.25 0.300287
1942.11 0.287916
1944.98 0.281627
1947.84 0.297809
1950.71 0.302648
1953.57 0.285307
1956.44 0.312766
1959.3 0.297021
1962.16 0.26275
1965.03 0.278139
1967.89 0.241522
1970.76 0.234943
1973.62 0.27174
1976.49 0.28407
1979.35 0.289953
1982.22 0.293511
1985.08 0.27746
1987.94 0.263821
1990.81 0.245755
1993.67 0.267027
1996.54 0.266935
1999.4 0.268111
2002.27 0.279089
2005.13 0.279148
2008 0.309711
2010.86 0.232575
2013.72 0.248074
2016.59 0.236003
2019.45 0.257267
2022.32 0.293494
2025.18 0.306943
2028.05 0.263881
2030.91 0.303428
2033.78 0.271344
2036.64 0.228349
2039.51 0.252114
2042.37 0.269643
2045.23 0.286981
2048.1 0.282988
2050.96 0.326169
2053.83 0.316317
2056.69 0.324877
2059.56 0.269685
2062.42 0.266815
2065.29 0.27274
2068.15 0.288957
2071.01 0.327296
2073.88 0.327518
2076.74 0.338367
2079.61 0.319553
2082.47 0.317308
2085.34 0.320889
2088.2 0.32705
2091.07 0.313015
2093.93 0.327947
2096.79 0.336344
2099.66 0.308047
2102.52 0.334581
2105.39 0.338421
2108.25 0.330169
2111.12 0.343493
2113.98 0.355191
2116.85 0.357923
2119.71 0.355922
2122.58 0.325108
2125.44 0.319877
2128.3 0.312459
2131.17 0.335872
2134.03 0.320517
2136.9 0.282493
2139.76 0.325082
2142.63 0.297707
2145.49 0.315842
2148.36 0.276763
2151.22 0.324306
2154.08 0.338744
2156.95 0.303705
2159.81 0.273814
2162.68 0.25656
2165.54 0.280032
2168.41 0.299336
2171.27 0.31073
2174.14 0.299661
2177 0.325564
2179.86 0.281514
2182.73 0.280744
2185.59 0.319988
2188.46 0.340085
2191.32 0.330215
2194.19 0.369833
2197.05 0.309399
2199.92 0.338219
2202.78 0.362641
2205.64 0.324822
2208.51 0.317633
2211.37 0.311843
2214.24 0.346801
2217.1 0.315342
2219.97 0.320769
2222.83 0.332513
2225.7 0.342832
2228.56 0.372174
2231.43 0.360365
2234.29 0.367152
2237.15 0.356783
2240.02 0.362644
2242.88 0.364545
2245.75 0.369184
2248.61 0.347833
2251.48 0.370999
2254.34 0.346908
2257.21 0.358697
2260.07 0.367491
2262.93 0.368225
2265.8 0.358199
2268.66 0.385816
2271.53 0.395075
2274.39 0.426468
2277.26 0.420339
2280.12 0.408947
2282.99 0.426932
2285.85 0.427839
2288.71 0.426618
2291.58 0.416542
2294.44 0.43213
2297.31 0.419657
2300.17 0.443852
2303.04 0.43509
2305.9 0.434945
2308.77 0.453707
2311.63 0.452738
2314.49 0.454407
2317.36 0.452585
2320.22 0.465122
2323.09 0.469564
2325.95 0.488077
2328.82 0.468264
2331.68 0.484609
2334.55 0.454847
2337.41 0.461212
2340.28 0.461634
2343.14 0.464403
2346 0.475442
2348.87 0.47784
2351.73 0.481438
2354.6 0.460422
2357.46 0.46064
2360.33 0.489514
2363.19 0.470492
2366.06 0.483136
2368.92 0.487073
2371.78 0.474896
2374.65 0.457044
2377.51 0.464435
2380.38 0.462381
2383.24 0.462829
2386.11 0.463004
2388.97 0.473049
2391.84 0.453788
2394.7 0.445561
2397.56 0.44126
2400.43 0.438668
2403.29 0.427359
2406.16 0.446272
2409.02 0.448569
2411.89 0.465365
2414.75 0.457685
2417.62 0.438937
2420.48 0.454299
2423.34 0.435049
2426.21 0.470685
2429.07 0.453107
2431.94 0.45809
2434.8 0.456648
2437.67 0.466027
2440.53 0.462445
2443.4 0.45679
2446.26 0.441236
2449.12 0.452356
2451.99 0.467621
2454.85 0.455431
2457.72 0.483233
2460.58 0.466768
2463.45 0.476741
2466.31 0.464739
2469.18 0.461558
2472.04 0.468864
2474.91 0.483023
2477.77 0.455687
2480.63 0.451949
2483.5 0.47784
2486.36 0.452622
2489.23 0.476131
2492.09 0.4604
2494.96 0.47114
2497.82 0.464672
2500.69 0.485492
2503.55 0.486877
2506.41 0.48185
2509.28 0.46899
2512.14 0.481935
2515.01 0.485073
2517.87 0.447525
2520.74 0.447975
2523.6 0.446374
2526.47 0.449858
2529.33 0.462767
2532.19 0.478368
2535.06 0.466517
2537.92 0.475722
2540.79 0.473758
2543.65 0.462058
2546.52 0.482195
2549.38 0.489877
2552.25 0.487117
2555.11 0.48649
2557.98 0.490132
2560.84 0.472012
2563.7 0.495688
2566.57 0.48467
2569.43 0.471332
2572.3 0.466698
2575.16 0.466811
2578.03 0.475756
2580.89 0.485452
2583.76 0.469506
2586.62 0.477202
2589.48 0.51614
2592.35 0.502984
2595.21 0.506213
2598.08 0.507805
2600.94 0.504743
2603.81 0.51378
2606.67 0.511507
2609.54 0.506074
2612.4 0.503574
2615.26 0.50289
2618.13 0.509852
2620.99 0.499597
2623.86 0.506005
2626.72 0.514608
2629.59 0.516464
2632.45 0.509804
2635.32 0.517899
2638.18 0.52617
2641.04 0.524156
2643.91 0.528515
2646.77 0.51415
2649.64 0.526538
2652.5 0.532146
2655.37 0.542958
2658.23 0.534703
2661.1 0.524531
2663.96 0.525823
2666.82 0.528626
2669.69 0.543646
2672.55 0.525704
2675.42 0.534075
2678.28 0.555261
2681.15 0.560237
2684.01 0.551638
2686.88 0.549814
2689.74 0.556055
2692.61 0.56279
2695.47 0.559537
2698.33 0.560539
2701.2 0.557189
2704.06 0.53739
2706.93 0.552385
2709.79 0.54195
2712.66 0.543341
2715.52 0.551548
2718.39 0.556214
2721.25 0.564049
2724.11 0.550976
2726.98 0.542283
2729.84 0.554712
2732.71 0.546145
2735.57 0.544531
2738.44 0.546938
2741.3 0.54634
2744.17 0.545932
2747.03 0.530446
2749.89 0.535415
2752.76 0.522386
2755.62 0.522092
2758.49 0.545447
2761.35 0.533691
2764.22 0.54374
2767.08 0.535303
2769.95 0.540639
2772.81 0.53668
2775.68 0.549938
2778.54 0.535445
2781.4 0.559462
2784.27 0.550436
2787.13 0.545583
2790 0.540481
2792.86 0.546061
2795.73 0.534892
2798.59 0.526152
2801.46 0.55346
2804.32 0.543433
2807.18 0.558703
2810.05 0.538475
2812.91 0.543698
2815.78 0.548993
2818.64 0.560788
2821.51 0.55031
2824.37 0.556501
2827.24 0.549619
2830.1 0.548203
2832.96 0.553353
2835.83 0.546754
2838.69 0.56124
2841.56 0.547852
2844.42 0.564058
2847.29 0.568603
2850.15 0.568177
2853.02 0.563081
2855.88 0.575629
2858.74 0.585195
2861.61 0.58033
2864.47 0.584352
2867.34 0.580272
2870.2 0.590003
2873.07 0.581635
2875.93 0.628173
2878.8 0.621739
2881.66 0.625898
2884.53 0.614884
2887.39 0.626183
2890.25 0.61556
2893.12 0.608421
2895.98 0.612944
2898.85 0.642693
2901.71 0.629567
2904.58 0.624414
2907.44 0.611531
2910.31 0.596105
2913.17 0.612488
2916.03 0.590014
2918.9 0.59231
2921.76 0.571041
2924.63 0.577057
2927.49 0.549634
2930.36 0.558231
2933.22 0.571583
2936.09 0.559664
2938.95 0.566439
2941.81 0.552077
2944.68 0.570804
2947.54 0.569813
2950.41 0.56763
2953.27 0.543983
2956.14 0.567086
2959 0.542975
2961.87 0.564022
2964.73 0.541409
2967.59 0.536103
2970.46 0.55055
2973.32 0.548508
2976.19 0.568817
2979.05 0.554725
2981.92 0.541997
2984.78 0.53916
2987.65 0.552246
2990.51 0.521581
2993.38 0.562303
2996.24 0.543895
2999.1 0.554919
3001.97 0.553599
3004.83 0.556166
3007.7 0.575219
3010.56 0.544332
3013.43 0.575114
3016.29 0.544841
3019.16 0.556503
3022.02 0.550176
3024.88 0.554333
3027.75 0.561481
3030.61 0.556758
3033.48 0.551992
3036.34 0.558503
3039.21 0.571191
3042.07 0.577385
3044.94 0.604525
3047.8 0.591237
3050.66 0.598854
3053.53 0.590865
3056.39 0.611878
3059.26 0.591679
3062.12 0.567662
3064.99 0.576039
3067.85 0.598583
3070.72 0.596725
3073.58 0.625106
3076.44 0.61186
3079.31 0.629818
3082.17 0.724036
3085.04 0.759885
3087.9 0.761424
3090.77 0.667062
3093.63 0.614488
3096.5 0.574198
3099.36 0.533785
3102.23 0.542721
3105.09 0.523216
3107.95 0.523312
3110.82 0.525887
3113.68 0.53481
3116.55 0.533394
3119.41 0.550623
3122.28 0.528234
3125.14 0.535786
3128.01 0.54472
3130.87 0.523246
3133.73 0.550166
3136.6 0.505688
3139.46 0.549257
3142.33 0.527807
3145.19 0.546984
3148.06 0.548616
3150.92 0.542803
3153.79 0.531119
3156.65 0.544868
3159.51 0.53381
3162.38 0.545818
3165.24 0.534215
3168.11 0.526198
3170.97 0.527904
3173.84 0.521006
3176.7 0.547754
3179.57 0.544784
3182.43 0.564505
3185.29 0.543367
3188.16 0.534802
3191.02 0.565275
3193.89 0.569224
3196.75 0.532606
3199.62 0.528861
3202.48 0.541188
3205.35 0.55752
3208.21 0.555376
3211.07 0.545507
3213.94 0.549069
3216.8 0.515595
3219.67 0.550061
3222.53 0.535191
3225.4 0.507106
3228.26 0.539892
3231.13 0.543889
3233.99 0.552339
3236.86 0.546843
3239.72 0.555519
3242.58 0.548817
3245.45 0.535354
3248.31 0.512378
3251.18 0.542311
3254.04 0.548744
3256.91 0.532526
3259.77 0.526786
3262.64 0.536515
3265.5 0.547616
3268.36 0.55868
3271.23 0.553531
3274.09 0.571795
3276.96 0.550941
3279.82 0.54782
3282.69 0.546136
3285.55 0.542024
3288.42 0.560268
3291.28 0.544623
3294.14 0.56075
3297.01 0.561016
3299.87 0.566072
3302.74 0.561863
3305.6 0.546728
3308.47 0.542218
3311.33 0.520164
3314.2 0.534867
3317.06 0.558569
3319.93 0.558628
3322.79 0.539903
3325.65 0.552264
3328.52 0.541957
3331.38 0.570004
3334.25 0.531565
3337.11 0.542216
3339.98 0.538588
3342.84 0.529615
3345.71 0.581729
3348.57 0.555264
3351.43 0.575273
3354.3 0.560445
3357.16 0.554547
3360.03 0.551689
3362.89 0.544658
3365.76 0.567711
3368.62 0.542682
3371.49 0.516667
3374.35 0.553325
3377.21 0.57567
3380.08 0.55889
3382.94 0.576974
3385.81 0.543993
3388.67 0.57105
3391.54 0.573023
3394.4 0.56826
3397.27 0.5563
3400.13 0.569863
3402.99 0.580213
3405.86 0.572783
3408.72 0.58739
3411.59 0.559466
3414.45 0.570811
3417.32 0.545732
3420.18 0.555923
3423.05 0.547763
3425.91 0.558983
3428.77 0.565856
3431.64 0.554987
3434.5 0.568608
3437.37 0.575053
3440.23 0.559112
3443.1 0.597949
3445.96 0.590564
3448.83 0.574791
3451.69 0.567551
3454.56 0.584585
3457.42 0.58108
3460.28 0.567336
3463.15 0.595778
3466.01 0.560103
3468.88 0.53688
3471.74 0.543599
3474.61 0.539228
3477.47 0.553948
3480.34 0.553133
3483.2 0.534516
3486.06 0.583095
3488.93 0.61686
3491.79 0.553531
3494.66 0.563543
3497.52 0.580136
3500.39 0.552875
3503.25 0.538597
3506.12 0.572805
3508.98 0.589081
3511.84 0.540007
3514.71 0.565813
3517.57 0.555036
3520.44 0.565705
3523.3 0.577059
3526.17 0.626639
3529.03 0.586617
3531.9 0.540747
3534.76 0.567897
3537.62 0.578862
3540.49 0.57571
3543.35 0.602408
3546.22 0.582002
3549.08 0.548524
3551.95 0.561215
3554.81 0.544658
3557.68 0.529527
3560.54 0.554266
3563.41 0.574472
3566.27 0.557309
3569.13 0.567809
3572 0.56937
3574.86 0.585657
3577.73 0.567272
3580.59 0.590231
3583.46 0.583951
3586.32 0.576226
3589.19 0.572475
3592.05 0.571223
3594.91 0.565828
3597.78 0.574893
3600.64 0.541478
3603.51 0.562277
3606.37 0.565554
3609.24 0.595164
3612.1 0.583222
3614.97 0.60717
3617.83 0.576839
3620.69 0.553469
3623.56 0.587798
3626.42 0.620215
3629.29 0.565709
3632.15 0.579658
3635.02 0.578425
3637.88 0.58772
3640.75 0.587821
3643.61 0.580033
3646.47 0.574808
3649.34 0.569354
3652.2 0.577291
3655.07 0.598027
3657.93 0.569265
3660.8 0.594744
3663.66 0.590048
3666.53 0.583518
3669.39 0.640613
3672.26 0.598301
3675.12 0.59337
3677.98 0.611654
3680.85 0.600305
3683.71 0.573213
3686.58 0.564531
3689.44 0.595219
3692.31 0.577931
3695.17 0.590488
3698.04 0.578782
3700.9 0.605636
3703.76 0.531274
3706.63 0.595128
3709.49 0.586294
3712.36 0.592367
3715.22 0.596613
3718.09 0.608789
3720.95 0.612011
3723.82 0.592945
3726.68 0.611787
3729.54 0.58952
3732.41 0.592483
3735.27 0.5779
3738.14 0.596284
3741 0.633888
3743.87 0.616165
3746.73 0.572672
3749.6 0.614571
3752.46 0.600842
3755.32 0.609702
3758.19 0.630588
3761.05 0.599123
3763.92 0.595581
3766.78 0.618935
3769.65 0.621484
3772.51 0.588026
3775.38 0.596474
3778.24 0.606071
3781.11 0.62549
3783.97 0.623852
3786.83 0.604198
3789.7 0.586874
3792.56 0.604458
3795.43 0.602562
3798.29 0.634442
3801.16 0.619165
3804.02 0.590832
3806.89 0.60449
3809.75 0.616223
3812.61 0.612042
3815.48 0.601352
3818.34 0.622773
3821.21 0.599539
3824.07 0.583949
3826.94 0.56853
3829.8 0.615133
3832.67 0.605478
3835.53 0.5822
3838.39 0.624083
3841.26 0.618013
3844.12 0.638492
3846.99 0.625235
3849.85 0.633573
3852.72 0.63143
3855.58 0.615974
3858.45 0.626419
3861.31 0.61139
3864.17 0.602614
3867.04 0.604331
3869.9 0.602573
3872.77 0.606952
3875.63 0.638929
3878.5 0.607838
3881.36 0.612122
3884.23 0.642228
3887.09 0.626563
3889.96 0.597554
3892.82 0.617116
3895.68 0.630631
3898.55 0.593627
3901.41 0.56729
3904.28 0.586523
3907.14 0.597625
3910.01 0.578306
3912.87 0.598727
3915.74 0.596194
3918.6 0.634971
3921.46 0.621593
3924.33 0.600266
3927.19 0.634176
3930.06 0.594486
3932.92 0.648333
3935.79 0.618444
3938.65 0.628504
3941.52 0.662766
3944.38 0.631973
3947.24 0.655699
3950.11 0.644501
3952.97 0.577138
3955.84 0.553269
3958.7 0.591473
3961.57 0.601977
3964.43 0.601912
3967.3 0.573752
3970.16 0.631344
3973.02 0.603274
3975.89 0.630538
3978.75 0.601978
3981.62 0.563664
3984.48 0.621371
3987.35 0.640738
3990.21 0.618103
3993.08 0.586281
3995.94 0.669461
3998.81 0.656912
4001.67 0.617922
4004.53 0.634992
4007.4 0.635052
4010.26 0.615383
4013.13 0.634904
4015.99 0.62654
4018.86 0.65119
4021.72 0.654767
4024.59 0.613802
4027.45 0.618575
4030.31 0.633994
4033.18 0.634021
4036.04 0.655739
4038.91 0.609811
4041.77 0.600342
4044.64 0.613695
4047.5 0.54857
4050.37 0.594511
4053.23 0.59109
4056.09 0.582008
4058.96 0.655999
4061.82 0.659983
4064.69 0.663582
4067.55 0.64685
4070.42 0.656769
4073.28 0.675218
4076.15 0.662336
4079.01 0.615132
4081.88 0.629706
4084.74 0.633133
4087.6 0.627023
4090.47 0.63298
4093.33 0.624953
4096.2 0.640584
4099.06 0.638429
4101.93 0.663616
4104.79 0.608702
4107.66 0.637101
4110.52 0.656903
4113.38 0.61859
4116.25 0.638614
4119.11 0.599231
4121.98 0.671089
4124.84 0.691978
4127.71 0.656479
4130.57 0.612526
4133.44 0.663101
4136.3 0.618299
4139.16 0.648857
4142.03 0.62197
4144.89 0.624289
4147.76 0.615189
4150.62 0.639425
4153.49 0.670049
4156.35 0.668297
4159.22 0.67631
4162.08 0.683394
4164.94 0.694719
4167.81 0.681698
4170.67 0.661107
4173.54 0.618604
4176.4 0.647779
4179.27 0.618115
4182.13 0.624817
4185 0.604383
4187.86 0.648655
4190.73 0.678573
4193.59 0.654041
4196.45 0.712656
4199.32 0.662626
4202.18 0.624148
4205.05 0.704081
4207.91 0.663167
4210.78 0.650487
4213.64 0.655043
4216.5 0.588798
4219.37 0.627862
4222.23 0.59927
4225.1 0.633711
4227.96 0.63419
4230.83 0.645387
4233.69 0.628164
4236.56 0.666312
4239.42 0.640911
4242.29 0.639476
4245.15 0.668397
4248.01 0.684581
4250.88 0.678202
4253.74 0.616022
4256.61 0.616129
4259.47 0.625244
4262.34 0.641062
4265.2 0.612492
4268.07 0.606223
4270.93 0.59184
4273.79 0.608756
4276.66 0.598275
4279.52 0.651556
4282.39 0.685944
4285.25 0.651348
4288.12 0.581208
4290.98 0.608436
4293.85 0.648045
4296.71 0.624285
4299.57 0.617431
4302.44 0.619953
4305.3 0.662561
4308.17 0.692772
4311.03 0.641378
4313.9 0.65233
4316.76 0.629297
4319.63 0.625708
4322.49 0.655033
4325.36 0.649264
4328.22 0.59308
4331.08 0.666371
4333.95 0.649836
4336.81 0.69454
4339.68 0.677726
4342.54 0.617018
4345.41 0.622654
4348.27 0.633837
4351.14 0.657804
4354 0.619536
4356.86 0.655547
4359.73 0.657419
4362.59 0.605277
4365.46 0.652533
4368.32 0.67335
4371.19 0.599203
4374.05 0.646063
4376.92 0.652042
4379.78 0.606619
4382.64 0.712898
4385.51 0.636771
4388.37 0.619302
4391.24 0.608492
4394.1 0.640624
4396.97 0.688696
4399.83 0.63717
4402.7 0.579908
4405.56 0.556288
4408.43 0.610828
4411.29 0.655174
4414.15 0.647406
4417.02 0.644804
4419.88 0.641642
4422.75 0.630235
4425.61 0.656351
4428.48 0.643912
4431.34 0.618848
4434.21 0.655175
4437.07 0.645913
4439.93 0.662763
4442.8 0.657418
4445.66 0.650444
4448.53 0.632187
4451.39 0.586355
4454.26 0.625737
4457.12 0.667256
4459.99 0.601319
4462.85 0.611883
4465.71 0.572023
4468.58 0.651302
4471.44 0.668323
4474.31 0.620846
4477.17 0.624099
4480.04 0.604749
4482.9 0.610653
4485.77 0.64621
4488.63 0.630647
4491.49 0.584019
4494.36 0.592035
4497.22 0.583637
4500.09 0.648493
4502.95 0.690767
4505.82 0.680402
4508.68 0.645433
4511.55 0.679477
4514.41 0.643604
4517.27 0.570378
4520.14 0.639249
4523 0.623272
4525.87 0.598029
4528.73 0.619697
4531.6 0.659987
4534.46 0.588429
4537.33 0.652819
4540.19 0.632492
4543.06 0.675464
4545.92 0.652337
4548.78 0.653364
4551.65 0.628442
4554.51 0.619554
4557.38 0.679277
4560.24 0.635993
4563.11 0.600298
4565.97 0.642793
4568.84 0.626583
4571.7 0.641146
4574.56 0.675164
4577.43 0.607821
4580.29 0.633567
4583.16 0.625009
4586.02 0.661054
4588.89 0.644472
4591.75 0.658439
4594.62 0.666865
4597.48 0.586333
4600.34 0.672762
4603.21 0.624005
4606.07 0.713904
4608.94 0.680728
4611.8 0.679435
4614.67 0.708828
4617.53 0.70296
4620.4 0.574806
4623.26 0.602691
4626.12 0.642458
4628.99 0.661599
4631.85 0.662538
4634.72 0.669432
4637.58 0.616825
4640.45 0.578407
4643.31 0.629132
4646.18 0.584797
4649.04 0.613232
4651.91 0.631221
4654.77 0.560256
4657.63 0.573313
4660.5 0.538037
4663.36 0.595309
4666.23 0.631289
4669.09 0.688308
4671.96 0.627583
4674.82 0.631592
4677.69 0.521898
4680.55 0.658523
4683.41 0.665094
4686.28 0.693331
4689.14 0.648766
4692.01 0.604696
4694.87 0.674512
4697.74 0.595313
4700.6 0.5291
4703.47 0.545442
4706.33 0.663944
4709.19 0.616758
4712.06 0.618611
4714.92 0.575718
4717.79 0.548817
4720.65 0.566553
4723.52 0.625013
4726.38 0.62943
4729.25 0.711922
4732.11 0.562107
4734.97 0.519001
4737.84 0.686659
4740.7 0.637339
4743.57 0.698375
4746.43 0.46471
4749.3 0.621405
4752.16 0.555714
4755.03 0.588537
4757.89 0.467403
4760.76 0.581796
4763.62 0.633049
4766.48 0.593891
4769.35 0.675932
4772.21 0.567671
4775.08 0.752982
4777.94 0.493465
4780.81 0.47004
4783.67 0.587376
4786.54 0.312673
4789.4 0.488444
4792.26 0.638605
4795.13 0.46774
4797.99 0.369296
4800.86 0.356982
4803.72 0.397836
4806.59 0.386134
4809.45 0.511409
4812.32 0.882934
4815.18 0.518656
4818.04 0.651744
4820.91 0.451528
4823.77 0.554453
4826.64 0.620755
4829.5 0.588997
4832.37 0.639937
4835.23 0.527609
4838.1 0.526757
4840.96 0.616704
4843.83 0.46047
4846.69 0.521018
4849.55 0.354834
4852.42 0.47295
4855.28 0.358678
4858.15 0.334853
4861.01 0.454005
4863.88 0.427365
4866.74 0.606874
4869.6 0.533516
4872.47 0.254016
4875.33 0.179956
4878.2 0.182522
4881.06 0.4118
4883.93 0.379253
4886.79 0.420084
4889.66 0.756543
4892.52 0.381909
4895.39 0.609673
4898.25 0.6471
4901.11 0.563165
4903.98 -0.299477
4906.84 0.304058
4909.71 0.375733
4912.57 0.866839
4915.44 0.676633
4918.3 0.636843
4921.17 -0.0656855
4924.03 -0.349685
4926.89 -0.468016
4929.76 -0.0536913
4932.62 0.2848
4935.49 0.0372093
4938.35 -0.0420494
4941.22 0.128455
4944.08 0.565863
4946.95 0.119393
4949.81 0.942018
4952.67 0.503755
4955.54 0.374768
4958.4 -0.428412
4961.27 0.145886
4964.13 -0.147626
4967 -0.302768
4969.86 -1.05331
4972.73 -0.530256
4975.59 0.819594
4978.46 -0.128774
4981.32 0.799028
4984.18 -0.00675461
4987.05 0.277335
4989.91 -0.0640697
4992.78 -0.391121
4995.64 0.0483288
4998.51 0.479212
5001.37 -1.9793
5004.24 -1.22199
5007.1 0.186259
5009.96 0.439969
5012.83 -0.289751
5015.69 -0.510746
5018.56 0.295101
5021.42 0.359872
5024.29 -0.279188
5027.15 -0.00973566
5030.02 -0.196633
5032.88 -0.472167
5035.75 1.67788
5038.61 -1.13942
5041.47 0.843836
5044.34 1.52756
5047.2 0.938393
5050.07 -2.11935
5052.93 -2.51126
5055.8 -1.45832
5058.66 -3.69936
5061.52 -1.3079
5064.39 4.5758
5067.25 -1.1596
5070.12 -0.0156003
5072.98 -0.12843
5075.85 2.70926
5078.71 3.73237
5081.58 3.22402
5084.44 -2.01381
5087.31 -1.94686
5090.17 0.117971
5093.03 7.61438
5095.9 -0.75494
5098.76 0.38174
5101.63 -0.987506
5104.49 -0.809191
5107.36 -1.07754
5110.22 1.14496
5113.09 2.03285
5115.95 -0.0506952
5118.81 0.732382
5121.68 -0.855819
5124.54 1.86907
5127.41 2.70457
5130.27 3.42087
5133.14 0.163276
5136 7.76775
5138.87 1.86247
5141.73 5.99159
5144.59 2.31638
5147.46 3.24228
5150.32 2.8932
5153.19 0.35512
5156.05 1.18426
5158.92 -0.66481
5161.78 3.94721
5164.65 3.12116
5167.51 1.49459
5170.38 11.2629
5173.24 9.95309
5176.1 6.15364
5178.97 -0.198348
5181.83 3.1758
5184.7 0.0528218
5187.56 -1.77191
5190.43 7.34907
5193.29 0.24376
5196.16 3.43988
5199.02 1.41472
5201.88 6.95421
5204.75 4.15204
5207.61 3.28083
5210.48 0.438582
5213.34 4.07753
5216.21 2.03757
5219.07 0.792074
5221.94 -0.341114
5224.8 0.15252
5227.66 2.15613
5230.53 4.11145
5233.39 2.69737
5236.26 2.35615
5239.12 7.23751
5241.99 4.06525
5244.85 0.391513
5247.72 1.50943
5250.58 3.37794
5253.44 0.699483
5256.31 3.97206
5259.17 3.14735
5262.04 4.45364
5264.9 2.15777
5267.77 3.75112
5270.63 6.3641
5273.5 1.2126
5276.36 3.1822
5279.23 4.76694
5282.09 5.17419
5284.95 0.812178
5287.82 9.8876
5290.68 1.02778
5293.55 1.07398
5296.41 3.62369
5299.28 1.67027
5302.14 1.43922
5305.01 0.803411
5307.87 6.5801
5310.73 0.420453
5313.6 2.43802
5316.46 9.52044
5319.33 2.54123
5322.19 -0.601592
5325.06 0.941593
5327.92 2.53328
5330.79 5.44734
5333.65 2.8629
5336.51 1.21038
5339.38 1.57172
5342.24 0.987882
5345.11 0.364899
5347.97 4.10402
5350.84 2.92892
5353.7 0.223089
5356.57 1.22286
5359.43 1.27614
5362.29 2.24468
5365.16 7.88145
5368.02 3.84739
5370.89 3.73247
5373.75 8.92974
5376.62 0.801771
5379.48 -1.98316
5382.35 -1.66383
5385.21 0.952547
5388.08 1.65644
5390.94 2.3537
5393.8 0.522854
5396.67 8.64022
5399.53 0.60692
5402.4 4.42652
5405.26 5.83027
5408.13 5.11116
5410.99 12.3921
5413.86 1.28576
5416.72 1.34766
5419.58 2.48381
5422.45 1.67636
5425.31 -0.752634
5428.18 0.891388
5431.04 0.993749
5433.91 -0.525645
5436.77 -0.186177
5439.64 0.727738
5442.5 2.57576
5445.36 2.98949
5448.23 2.66512
5451.09 2.36404
5453.96 1.02191
5456.82 1.22462
5459.69 5.5245
5462.55 2.62525
5465.42 5.02389
5468.28 1.47381
5471.15 1.70253
5474.01 -0.235781
5476.87 0.556616
5479.74 0.233049
5482.6 4.21506
5485.47 6.24005
5488.33 8.52764
5491.2 0.815602
5494.06 -1.63513
5496.92 -1.69724
5499.79 1.35719
5502.65 3.22177
5505.52 6.5774
5508.38 4.548
5511.25 1.49423
5514.11 7.41668
5516.98 2.41001
5519.84 4.75195
5522.71 3.20984
5525.57 1.96909
5528.43 6.09117
5531.3 1.54819
5534.16 7.78756
5537.03 2.00201
5539.89 4.24141
5542.76 2.06891
5545.62 1.54678
5548.49 0.800916
5551.35 8.9299
5554.21 1.64689
5557.08 1.00104
5559.94 3.14201
5562.81 3.58969
5565.67 2.10926
5568.54 1.76797
5571.4 5.19719
5574.27 3.30058
5577.13 2.32656
5579.99 0.168668
5582.86 8.93567
5585.72 2.73164
5588.59 3.39939
5591.45 8.83801
5594.32 6.6614
5597.18 2.63528
5600.05 0.600848
5602.91 6.64466
5605.78 -0.0224085
5608.64 2.7551
5611.5 6.09035
5614.37 4.68047
5617.23 5.54994
5620.1 4.19932
5622.96 1.49514
5625.83 -2.13577
5628.69 -1.14561
5631.56 0.775888
5634.42 0.178784
5637.28 1.84884
5640.15 3.84531
5643.01 0.730449
5645.88 8.44133
5648.74 2.1773
5651.61 3.84614
5654.47 0.951545
5657.34 6.35441
5660.2 0.757256
5663.06 3.07348
5665.93 2.12929
5668.79 4.43783
5671.66 3.0524
5674.52 9.05613
5677.39 5.49398
5680.25 5.23435
5683.12 7.70801
5685.98 1.10759
5688.84 1.35062
5691.71 10.7943
5694.57 0.532926
5697.44 0.0128203
5700.3 1.57377
5703.17 0.222503
5706.03 2.13493
5708.9 1.98552
5711.76 1.3369
5714.62 -0.369982
5717.49 0.906087
5720.35 4.13923
5723.22 4.94829
5726.08 1.70792
5728.95 3.47709
5731.81 2.51757
5734.68 1.38978
5737.54 1.0136
5740.41 2.62103
5743.27 0.832032
5746.13 2.27696
5749 1.93516
5751.86 -0.662564
5754.73 -1.16679
5757.59 3.00235
5760.46 5.4791
5763.32 4.90925
5766.19 2.86992
5769.05 -1.11823
5771.91 -0.380724
5774.78 4.68403
5777.64 3.12294
5780.51 6.42359
5783.37 0.935057
5786.24 11.8454
5789.1 4.59783
5791.97 1.10231
5794.83 2.22047
5797.69 4.70478
5800.56 3.45356
5803.42 -0.492603
5806.29 4.32961
5809.15 3.17334
5812.02 5.78388
5814.88 2.40013
5817.75 1.34948
5820.61 -1.80412
5823.48 3.15163
5826.34 1.77543
5829.2 -0.256627
5832.07 2.04749
5834.93 11.2718
5837.8 1.56886
5840.66 9.67871
5843.53 2.51684
5846.39 4.58758
5849.26 0.982894
5852.12 3.17212
5854.98 -1.04014
5857.85 12.6373
5860.71 1.66121
5863.58 6.58763
spectrumdark 2048
0 7256.17
2.8709 6933.93
5.74181 1883.72
8.61271 2111.66
11.4836 1519.93
14.3545 895.048
17.2254 1111.15
20.0963 1221.99
22.9672 1278.16
25.8381 1475.07
28.709 1924.3
31.5799 2431.83
34.4509 2729.37
37.3218 2404.82
40.1927 2766.22
43.0636 3091.81
45.9345 2862.78
48.8054 3385.93
51.6763 3259.87
54.5472 2912.26
57.4181 2843.42
60.289 2524.86
63.1599 2791.57
66.0308 2401.99
68.9017 1861.45
71.7726 2101.5
74.6435 1858.29
77.5144 1861.27
80.3853 2808.26
83.2562 2741.14
86.1271 2862.52
88.998 3789.85
91.8689 4063.87
94.7398 3738.47
97.6107 4211.55
100.482 5116.92
103.353 3910.44
106.223 4506.01
109.094 3798.76
111.965 4079.27
114.836 3063.73
117.707 2675.44
120.578 3247.93
123.449 3166.4
126.32 2815.78
129.191 3642.68
132.062 3867.88
134.932 3721.92
137.803 2913.1
140.674 3444.23
143.545 3547.63
146.416 2744.85
149.287 3341.89
152.158 4012.3
155.029 4207.13
157.9 3452.48
160.771 3009.72
163.642 3442.85
166.512 2387.21
169.383 4192.08
172.254 2802.74
175.125 2220.8
177.996 2913.15
180.867 2486.48
183.738 2715.12
186.609 3626.39
189.48 3087.73
192.351 3422.88
195.221 3326.2
198.092 3113.74
200.963 3291.7
203.834 2538.2
206.705 1747.13
209.576 2202.08
212.447 2723.93
215.318 2928.23
218.189 2942.89
221.06 2935.27
223.931 3841.98
226.801 3039.33
229.672 3141.47
232.543 2996.01
235.414 3166.84
238.285 2823.16
241.156 3031.7
244.027 3662.05
246.898 3660.55
249.769 3602.34
252.64 3361.27
255.51 2438.75
258.381 2441.86
261.252 2707.21
264.123 2570.69
266.994 2949.69
269.865 2609.75
272.736 3035.71
275.607 2743.05
278.478 2874.75
281.349 3480.68
284.22 2665.21
287.09 2385.22
289.961 2117.31
292.832 2074.07
295.703 2324.32
298.574 2660.88
301.445 2117.54
304.316 1867.77
307.187 2211.57
310.058 2002.78
312.929 2795.06
315.799 2951.89
318.67 2137.11
321.541 2277.4
324.412 2389.19
327.283 2308
330.154 1835.78
333.025 1880.98
335.896 2741.35
338.767 2926.9
341.638 2469.07
344.509 2732.18
347.379 2409.42
350.25 2548.59
353.121 2466.07
355.992 2394.81
358.863 2595.68
361.734 2823.62
364.605 2166.53
367.476 1714.63
370.347 2351.35
373.218 2972.65
376.088 2443.91
378.959 2991.62
381.83 2959.57
384.701 2148.23
387.572 2319.86
390.443 2914.87
393.314 2324.16
396.185 2382.92
399.056 2678.36
401.927 2664.57
404.798 2830.41
407.668 2519.54
410.539 1999.42
413.41 2302.44
416.281 2954.49
419.152 2482.85
422.023 1737.36
424.894 2182.42
427.765 2644.92
430.636 2090.15
433.507 2605.35
436.378 2568.03
439.248 2196.12
442.119 1956.98
444.99 1775.07
447.861 1987.15
450.732 1841.79
453.603 2011.8
456.474 1744.88
459.345 1946.69
462.216 2081.02
465.087 2015.4
467.957 2461.5
470.828 2078.12
473.699 1646.57
476.57 2197.97
479.441 2363.26
482.312 2707.73
485.183 2310.68
488.054 1677.97
490.925 2278.21
493.796 2053.56
496.666 2020.77
499.537 2188.73
502.408 2186.58
505.279 2360.88
508.15 1987.33
511.021 1801.69
513.892 1989.03
516.763 1970.85
519.634 1856.02
522.505 2088.88
525.376 1876.41
528.246 2033.54
531.117 2097.31
533.988 2153.18
536.859 1952.4
539.73 1806
542.601 1755.16
545.472 2204.41
548.343 1868.34
551.214 1901.2
554.085 2150.95
556.955 1838.66
559.826 1794.83
562.697 1291.57
565.568 2343.93
568.439 2124.96
571.31 2057
574.181 2721.74
577.052 1685.84
579.923 1571.93
582.794 2313.14
585.664 2521.18
588.535 3205.87
591.406 3373.44
594.277 3505.5
597.148 3449.57
600.019 3961.59
602.89 5155.68
605.761 5310.64
608.632 6471.42
611.503 6666.33
614.374 7074.38
617.244 8119.93
620.115 9768.34
622.986 11280.7
625.857 12939.6
628.728 15079.2
631.599 17099.8
634.47 18235.4
637.341 20677
640.212 22509
643.083 24360.6
645.953 26043.9
648.824 28072
651.695 30753.4
654.566 33044.6
657.437 35007.6
660.308 37479.5
663.179 39906.8
666.05 41397.3
668.921 39570.6
671.792 45838.1
674.663 48962.2
677.533 51240.9
680.404 53923.6
683.275 55625.9
686.146 57979.2
689.017 61301.3
691.888 63503.5
694.759 66537.4
697.63 68343.2
700.501 70352.8
703.372 73477.9
706.242 76287
709.113 79250.4
711.984 81688.8
714.855 84191.6
717.726 86946
720.597 90189
723.468 93287.8
726.339 96952.8
729.21 99919.8
732.081 103018
734.952 106262
737.822 109951
740.693 113900
743.564 117607
746.435 120583
749.306 124981
752.177 127573
755.048 131720
757.919 135451
760.79 139899
763.661 144428
766.531 147509
769.402 152348
772.273 156270
775.144 159950
778.015 164658
780.886 169080
783.757 172974
786.628 176872
789.499 179395
792.37 182480
795.24 186066
798.111 190161
800.982 194504
803.853 199379
806.724 203879
809.595 209020
812.466 214337
815.337 219549
818.208 224324
821.079 228969
823.95 233689
826.82 237845
829.691 243195
832.562 247545
835.433 252263
838.304 256663
841.175 260288
844.046 264191
846.917 268402
849.788 272420
852.659 277211
855.53 280631
858.4 284787
861.271 288948
864.142 292302
867.013 297495
869.884 301589
872.755 305372
875.626 309534
878.497 313562
881.368 318223
884.239 322560
887.109 327651
889.98 333037
892.851 337224
895.722 342210
898.593 347338
901.464 352271
904.335 357733
907.206 362865
910.077 368330
912.948 374313
915.819 379134
918.689 385144
921.56 390975
924.431 396724
927.302 402316
930.173 408334
933.044 415068
935.915 422243
938.786 429152
941.657 437154
944.528 444247
947.398 451740
950.269 460530
953.14 468939
956.011 478584
958.882 488780
961.753 499167
964.624 509874
967.495 521109
970.366 533624
973.237 546297
976.107 558281
978.978 571946
981.849 583858
984.72 595652
987.591 606359
990.462 616899
993.333 625528
996.204 632690
999.075 637588
1001.95 640679
1004.82 639914
1007.69 638015
1010.56 633246
1013.43 625932
1016.3 618313
1019.17 608967
1022.04 599834
1024.91 591102
1027.78 580953
1030.65 569958
1033.53 558989
1036.4 546658
1039.27 534443
1042.14 521940
1045.01 509801
1047.88 497757
1050.75 484929
1053.62 472399
1056.49 459332
1059.36 446834
1062.23 434814
1065.11 422045
1067.98 409493
1070.85 397234
1073.72 384839
1076.59 373672
1079.46 363099
1082.33 353619
1085.2 345085
1088.07 337659
1090.94 330708
1093.81 324782
1096.69 320318
1099.56 317586
1102.43 314873
1105.3 312385
1108.17 310449
1111.04 308811
1113.91 308331
1116.78 307877
1119.65 308097
1122.52 307309
1125.39 307049
1128.27 307014
1131.14 306930
1134.01 306848
1136.88 307344
1139.75 307287
1142.62 306694
1145.49 306046
1148.36 305561
1151.23 304515
1154.1 303560
1156.97 302158
1159.85 300357
1162.72 298544
1165.59 296339
1168.46 294683
1171.33 292302
1174.2 289933
1177.07 287362
1179.94 284550
1182.81 281287
1185.68 277948
1188.55 275212
1191.43 272604
1194.3 269869
1197.17 266953
1200.04 264134
1202.91 261559
1205.78 259658
1208.65 257929
1211.52 256609
1214.39 255150
1217.26 254961
1220.13 254907
1223.01 256533
1225.88 258255
1228.75 260708
1231.62 264037
1234.49 268323
1237.36 273187
1240.23 278471
1243.1 284338
1245.97 290015
1248.84 296192
1251.71 301070
1254.59 304224
1257.46 306415
1260.33 307009
1263.2 307154
1266.07 308338
1268.94 309468
1271.81 310488
1274.68 310792
1277.55 311358
1280.42 311267
1283.29 311151
1286.17 310520
1289.04 309470
1291.91 308776
1294.78 308653
1297.65 307712
1300.52 306937
1303.39 305930
1306.26 305517
1309.13 304402
1312 303290
1314.87 302023
1317.75 301174
1320.62 299640
1323.49 299560
1326.36 299254
1329.23 299358
1332.1 298748
1334.97 297988
1337.84 295653
1340.71 291790
1343.58 292327
1346.45 295431
1349.33 294845
1352.2 293891
1355.07 292961
1357.94 291536
1360.81 289965
1363.68 284790
1366.55 284881
1369.42 289021
1372.29 287182
1375.16 283737
1378.03 282393
1380.91 286290
1383.78 286310
1386.65 284893
1389.52 276989
1392.39 281242
1395.26 277814
1398.13 270804
1401 273466
1403.87 278839
1406.74 277833
1409.61 279580
1412.48 280328
1415.36 278487
1418.23 272881
1421.1 256039
1423.97 267257
1426.84 272944
1429.71 275288
1432.58 270246
1435.45 271217
1438.32 255956
1441.19 263487
1444.06 274476
1446.94 273198
1449.81 266559
1452.68 267884
1455.55 263174
1458.42 238402
1461.29 241165
1464.16 266550
1467.03 258545
1469.9 264331
1472.77 260058
1475.64 242485
1478.52 258432
1481.39 268960
1484.26 269591
1487.13 269336
1490 258581
1492.87 252010
1495.74 262082
1498.61 248794
1501.48 252047
1504.35 257801
1507.22 238776
1510.1 215779
1512.97 248931
1515.84 252354
1518.71 243946
1521.58 237851
1524.45 224049
1527.32 242889
1530.19 248020
1533.06 254685
1535.93 241412
1538.8 243579
1541.68 213164
1544.55 214910
1547.42 237529
1550.29 251442
1553.16 247902
1556.03 239474
1558.9 223338
1561.77 193388
1564.64 235348
1567.51 247773
1570.38 246229
1573.26 237003
1576.13 246223
1579 224643
1581.87 247226
1584.74 250819
1587.61 250532
1590.48 249134
1593.35 246478
1596.22 244426
1599.09 241575
1601.96 239375
1604.84 235006
1607.71 230637
1610.58 225226
1613.45 220159
1616.32 214017
1619.19 194060
1622.06 202964
1624.93 202290
1627.8 200950
1630.67 205284
1633.54 207974
1636.42 201937
1639.29 190807
1642.16 215071
1645.03 217542
1647.9 207804
1650.77 199421
1653.64 204844
1656.51 179069
1659.38 226210
1662.25 233875
1665.12 228448
1668 232859
1670.87 228444
1673.74 222193
1676.61 229696
1679.48 226719
1682.35 234450
1685.22 222882
1688.09 205427
1690.96 236588
1693.83 235645
1696.7 230399
1699.58 205249
1702.45 205400
1705.32 217063
1708.19 229259
1711.06 235957
1713.93 236894
1716.8 227279
1719.67 211903
1722.54 221581
1725.41 238081
1728.28 237702
1731.16 234551
1734.03 224974
1736.9 204853
1739.77 223493
1742.64 224291
1745.51 230074
1748.38 230782
1751.25 226098
1754.12 221154
1756.99 232440
1759.86 230369
1762.74 232408
1765.61 227038
1768.48 233423
1771.35 223467
1774.22 217795
1777.09 217928
1779.96 229079
1782.83 227144
1785.7 226659
1788.57 224810
1791.44 225071
1794.32 216176
1797.19 215613
1800.06 222175
1802.93 218629
1805.8 218578
1808.67 219760
1811.54 217210
1814.41 213393
1817.28 211973
1820.15 205938
1823.02 199967
1825.9 196722
1828.77 190621
1831.64 190051
1834.51 187493
1837.38 190560
1840.25 187991
1843.12 184191
1845.99 178171
1848.86 174813
1851.73 179445
1854.6 178714
1857.48 176999
1860.35 174981
1863.22 172944
1866.09 170851
1868.96 167216
1871.83 163136
1874.7 164236
1877.57 164802
1880.44 163177
1883.31 161333
1886.18 159778
1889.06 157150
1891.93 154731
1894.8 153030
1897.67 152061
1900.54 150759
1903.41 149429
1906.28 147389
1909.15 145360
1912.02 143414
1914.89 141586
1917.76 139199
1920.64 136265
1923.51 135246
1926.38 133941
1929.25 132285
1932.12 129386
1934.99 126692
1937.86 124171
1940.73 121317
1943.6 118514
1946.47 115344
1949.34 114179
1952.21 112091
1955.09 109635
1957.96 107635
1960.83 105146
1963.7 101436
1966.57 99034.1
1969.44 96836.1
1972.31 95179
1975.18 93643.4
1978.05 91857.5
1980.92 90471.2
1983.79 92395.4
1986.67 95548.4
1989.54 97025.3
1992.41 97821.7
1995.28 98495.7
1998.15 99323.7
2001.02 99675.1
2003.89 99164.9
2006.76 97685.9
2009.63 95220.9
2012.5 93380.1
2015.37 92738.9
2018.25 92033.5
2021.12 91658.7
2023.99 91521.4
2026.86 91276.2
2029.73 90888.1
2032.6 90884
2035.47 90724.4
2038.34 91085.7
2041.21 92400
2044.08 94544.1
2046.95 96755.1
2049.83 98380.9
2052.7 100580
2055.57 106176
2058.44 109423
2061.31 111911
2064.18 113377
2067.05 115023
2069.92 116427
2072.79 118284
2075.66 119820
2078.53 121692
2081.41 123921
2084.28 126323
2087.15 128324
2090.02 130031
2092.89 130780
2095.76 130975
2098.63 129457
2101.5 128865
2104.37 129479
2107.24 130103
2110.11 130748
2112.99 131380
2115.86 132461
2118.73 133315
2121.6 133696
2124.47 132970
2127.34 131187
2130.21 128532
2133.08 124875
2135.95 119976
2138.82 114037
2141.69 109775
2144.57 106331
2147.44 103100
2150.31 99913.9
2153.18 96883.4
2156.05 93985.3
2158.92 90237.5
2161.79 84923.7
2164.66 82282.2
2167.53 84879.9
2170.4 87496.7
2173.27 90075.6
2176.15 91543.5
2179.02 91850.6
2181.89 92240.2
2184.76 92263.3
2187.63 92918.1
2190.5 94371.8
2193.37 95707.2
2196.24 97124.8
2199.11 98450.2
2201.98 99366.8
2204.85 100385
2207.73 101587
2210.6 102417
2213.47 103525
2216.34 104187
2219.21 105247
2222.08 106003
2224.95 107053
2227.82 108212
2230.69 109467
2233.56 110600
2236.43 111887
2239.31 113338
2242.18 114894
2245.05 116578
2247.92 118157
2250.79 119741
2253.66 121181
2256.53 122374
2259.4 123418
2262.27 125623
2265.14 128040
2268.01 129757
2270.89 131824
2273.76 134247
2276.63 137284
2279.5 140408
2282.37 144047
2285.24 148462
2288.11 153510
2290.98 159322
2293.85 165304
2296.72 171024
2299.59 175797
2302.47 179656
2305.34 183219
2308.21 186195
2311.08 188893
2313.95 191158
2316.82 193061
2319.69 194992
2322.56 197055
2325.43 200059
2328.3 206964
2331.17 213808
2334.05 211719
2336.92 208795
2339.79 206787
2342.66 206405
2345.53 207991
2348.4 212740
2351.27 220411
2354.14 223540
2357.01 209790
2359.88 195767
2362.75 186615
2365.63 182189
2368.5 181313
2371.37 183720
2374.24 188234
2377.11 193850
2379.98 199290
2382.85 203131
2385.72 204210
2388.59 203075
2391.46 201241
2394.33 198244
2397.21 195182
2400.08 192167
2402.95 189450
2405.82 186452
2408.69 183718
2411.56 180983
2414.43 179105
2417.3 177374
2420.17 175647
2423.04 173961
2425.91 172402
2428.79 170633
2431.66 169285
2434.53 167966
2437.4 166630
2440.27 165934
2443.14 165069
2446.01 164216
2448.88 163558
2451.75 162985
2454.62 162666
2457.49 162714
2460.36 162897
2463.24 162814
2466.11 162678
2468.98 161731
2471.85 160956
2474.72 160209
2477.59 159514
2480.46 158786
2483.33 157889
2486.2 156892
2489.07 156186
2491.95 155442
2494.82 154920
2497.69 154354
2500.56 153901
2503.43 153431
2506.3 152770
2509.17 152178
2512.04 151590
2514.91 151158
2517.78 150683
2520.65 150251
2523.53 149568
2526.4 149271
2529.27 148837
2532.14 148379
2535.01 148333
2537.88 148047
2540.75 147839
2543.62 147765
2546.49 147702
2549.36 147633
2552.23 147582
2555.1 147535
2557.98 147546
2560.85 147980
2563.72 148066
2566.59 148200
2569.46 148865
2572.33 149196
2575.2 149822
2578.07 150380
2580.94 150833
2583.81 151523
2586.68 152604
2589.56 153667
2592.43 154553
2595.3 155985
2598.17 157178
2601.04 158351
2603.91 159897
2606.78 161520
2609.65 163248
2612.52 165159
2615.39 167316
2618.26 169458
2621.14 171943
2624.01 174635
2626.88 177062
2629.75 179833
2632.62 182968
2635.49 186192
2638.36 189546
2641.23 192883
2644.1 196429
2646.97 200203
2649.84 204137
2652.72 207796
2655.59 211691
2658.46 215367
2661.33 219082
2664.2 222216
2667.07 224368
2669.94 225458
2672.81 225400
2675.68 225017
2678.55 224194
2681.42 223502
2684.3 222721
2687.17 222086
2690.04 221528
2692.91 220969
2695.78 220168
2698.65 219394
2701.52 218692
2704.39 217930
2707.26 217253
2710.13 216567
2713 215703
2715.88 214900
2718.75 214414
2721.62 213741
2724.49 213091
2727.36 212256
2730.23 211714
2733.1 211002
2735.97 210425
2738.84 209707
2741.71 208780
2744.58 208226
2747.46 207704
2750.33 207026
2753.2 206226
2756.07 205620
2758.94 204773
2761.81 204253
2764.68 203649
2767.55 202962
2770.42 202213
2773.29 201638
2776.16 201089
2779.04 200380
2781.91 200053
2784.78 199250
2787.65 198562
2790.52 197932
2793.39 197186
2796.26 196561
2799.13 196185
2802 195165
2804.87 194758
2807.74 194202
2810.62 193383
2813.49 193000
2816.36 192174
2819.23 191575
2822.1 191028
2824.97 190424
2827.84 189708
2830.71 189100
2833.58 188333
2836.45 187694
2839.32 187044
2842.2 186161
2845.07 185472
2847.94 184709
2850.81 183881
2853.68 182990
2856.55 181895
2859.42 181121
2862.29 180428
2865.16 179977
2868.03 179628
2870.9 179015
2873.78 178560
2876.65 177862
2879.52 177376
2882.39 176947
2885.26 176457
2888.13 175974
2891 175250
2893.87 174567
2896.74 173597
2899.61 172903
2902.48 172234
2905.36 171780
2908.23 170966
2911.1 170137
2913.97 169269
2916.84 168367
2919.71 167489
2922.58 166618
2925.45 165722
2928.32 164773
2931.19 163983
2934.06 163112
2936.94 162836
2939.81 162581
2942.68 162176
2945.55 161842
2948.42 161419
2951.29 161156
2954.16 160718
2957.03 160148
2959.9 159591
2962.77 158978
2965.64 158235
2968.52 157844
2971.39 157290
2974.26 157050
2977.13 156969
2980 156833
2982.87 156794
2985.74 156288
2988.61 156129
2991.48 155572
2994.35 155139
2997.22 154492
3000.1 154274
3002.97 153844
3005.84 153566
3008.71 152959
3011.58 152430
3014.45 151715
3017.32 150867
3020.19 150317
3023.06 150081
3025.93 149775
3028.8 149087
3031.68 148580
3034.55 148083
3037.42 147225
3040.29 146756
3043.16 146238
3046.03 145715
3048.9 145362
3051.77 144802
3054.64 144097
3057.51 143751
3060.38 143179
3063.26 142765
3066.13 142127
3069 141456
3071.87 140928
3074.74 140706
3077.61 140235
3080.48 139554
3083.35 138767
3086.22 138170
3089.09 137873
3091.96 137573
3094.83 136924
3097.71 136382
3100.58 135663
3103.45 134917
3106.32 134485
3109.19 134149
3112.06 133602
3114.93 133025
3117.8 132478
3120.67 131603
3123.54 131197
3126.41 130835
3129.29 130375
3132.16 129741
3135.03 129313
3137.9 128675
3140.77 128156
3143.64 127529
3146.51 126959
3149.38 126839
3152.25 126151
3155.12 125438
3157.99 124802
3160.87 124502
3163.74 123972
3166.61 123509
3169.48 122767
3172.35 122075
3175.22 121517
3178.09 121129
3180.96 120506
3183.83 119868
3186.7 119464
3189.57 119056
3192.45 118539
3195.32 117961
3198.19 117455
3201.06 116828
3203.93 116199
3206.8 115730
3209.67 115486
3212.54 115039
3215.41 114516
3218.28 114211
3221.15 113589
3224.03 113121
3226.9 112767
3229.77 112589
3232.64 112239
3235.51 111945
3238.38 111454
3241.25 111236
3244.12 110962
3246.99 110725
3249.86 110244
3252.73 110129
3255.61 110045
3258.48 109510
3261.35 109244
3264.22 108919
3267.09 108848
3269.96 108605
3272.83 108021
3275.7 107772
3278.57 107491
3281.44 107334
3284.31 107230
3287.19 106925
3290.06 106443
3292.93 106336
3295.8 105766
3298.67 105297
3301.54 105085
3304.41 104614
3307.28 104306
3310.15 103667
3313.02 103270
3315.89 102985
3318.77 102674
3321.64 102160
3324.51 102020
3327.38 101381
3330.25 100596
3333.12 100009
3335.99 99754.7
3338.86 99346.3
3341.73 98511.8
3344.6 98242
3347.47 97700.9
3350.35 97052.7
3353.22 96610
3356.09 96129
3358.96 95604.7
3361.83 94913.3
3364.7 94348.4
3367.57 93694.2
3370.44 93293.9
3373.31 92551.7
3376.18 92161.6
3379.05 91780.9
3381.93 91178.9
3384.8 90460.3
3387.67 90001.6
3390.54 89359.9
3393.41 88799.8
3396.28 88234.1
3399.15 87504.6
3402.02 87194.1
3404.89 86399.9
3407.76 85923.2
3410.63 85608.2
3413.51 84960.1
3416.38 84456.6
3419.25 83762
3422.12 83234.4
3424.99 82661.1
3427.86 81822.2
3430.73 81581.2
3433.6 81099.7
3436.47 80521.4
3439.34 79788.6
3442.21 79543
3445.09 79252.9
3447.96 78481.1
3450.83 77885
3453.7 77240.7
3456.57 77107
3459.44 76579.8
3462.31 76049.1
3465.18 75518.6
3468.05 75137.6
3470.92 74616
3473.79 74014.3
3476.67 73805.4
3479.54 73444.4
3482.41 72976.7
3485.28 72738.9
3488.15 71883.5
3491.02 71664.4
3493.89 71256.4
3496.76 71066.2
3499.63 70590.7
3502.5 69953.2
3505.37 69778.1
3508.25 68968
3511.12 68620.4
3513.99 68724.1
3516.86 68168.8
3519.73 68372.5
3522.6 68214.8
3525.47 67866.9
3528.34 67378.9
3531.21 66841.2
3534.08 66853.7
3536.95 66836.1
3539.83 67015.9
3542.7 66828
3545.57 66785.9
3548.44 66682.3
3551.31 65828.4
3554.18 65684.8
3557.05 66229.4
3559.92 66023.6
3562.79 66608.3
3565.66 66179.6
3568.53 66105.9
3571.41 65358.8
3574.28 63206.7
3577.15 65891.9
3580.02 66957.4
3582.89 66966
3585.76 66937.9
3588.63 67110.1
3591.5 66449.2
3594.37 64068.1
3597.24 66592.1
3600.11 67346.7
3602.98 67252.2
3605.86 68057.3
3608.73 68463
3611.6 69350.7
3614.47 67247.1
3617.34 67331.8
3620.21 67843.4
3623.08 69502.5
3625.95 67352
3628.82 70039.1
3631.69 71873.5
3634.56 67127.6
3637.44 66853.1
3640.31 72271.8
3643.18 73483.3
3646.05 73777.9
3648.92 73562.6
3651.79 72923.5
3654.66 67266.9
3657.53 65817.7
3660.4 72528.3
3663.27 70748.1
3666.15 73810.3
3669.02 74147.6
3671.89 74177.3
3674.76 71287.1
3677.63 66061.5
3680.5 68225.5
3683.37 64639.3
3686.24 71271.7
3689.11 72814.4
3691.98 72994
3694.85 67221.1
3697.72 67553.3
3700.6 72135.8
3703.47 73418.3
3706.34 73142.6
3709.21 70801.8
3712.08 72583.2
3714.95 71540.9
3717.82 67390.9
3720.69 68498.5
3723.56 72286.9
3726.43 71688.9
3729.3 70396.3
3732.18 69730.6
3735.05 70170.7
3737.92 68739.5
3740.79 65046.8
3743.66 63732.7
3746.53 68435.6
3749.4 66631.1
3752.27 59409.7
3755.14 64692.9
3758.01 60631
3760.88 66206.9
3763.76 70274.7
3766.63 69336.8
3769.5 71462
3772.37 70720.7
3775.24 70396.6
3778.11 69783.8
3780.98 72433.3
3783.85 72195.3
3786.72 70378.1
3789.59 71867.2
3792.46 71558
3795.34 71917.8
3798.21 71747.4
3801.08 71060
3803.95 68744.6
3806.82 67169.7
3809.69 63941.8
3812.56 67302.5
3815.43 66258.6
3818.3 70153.4
3821.17 68026.4
3824.04 63693.5
3826.92 65281.6
3829.79 64078.2
3832.66 68072.4
3835.53 67946.1
3838.4 66668.9
3841.27 65713.7
3844.14 61905.6
3847.01 62523.2
3849.88 65261.8
3852.75 66569.5
3855.62 67384.1
3858.5 61930.3
3861.37 53640.8
3864.24 63332.4
3867.11 65754.1
3869.98 64083.2
3872.85 62979.3
3875.72 62458.6
3878.59 61206.7
3881.46 63366
3884.33 65100.4
3887.2 62774.2
3890.08 63503
3892.95 60986
3895.82 63625.2
3898.69 61511.7
3901.56 63508.3
3904.43 63144.4
3907.3 60020.4
3910.17 59043.6
3913.04 60582
3915.91 63417.2
3918.78 63429.2
3921.66 62978.2
3924.53 61153.6
3927.4 61509.8
3930.27 61675.1
3933.14 61213.3
3936.01 61575
3938.88 60388.4
3941.75 60799.1
3944.62 61225.4
3947.49 60815
3950.36 59937.1
3953.24 60182
3956.11 59624.8
3958.98 59675.2
3961.85 59754.3
3964.72 59355.6
3967.59 59318.5
3970.46 58925.3
3973.33 58729.3
3976.2 58490.1
3979.07 58294.9
3981.94 57996.3
3984.82 57917
3987.69 57677.8
3990.56 57343.9
3993.43 57178.3
3996.3 57016.8
3999.17 56638.5
4002.04 56369.5
4004.91 56259
4007.78 55991.1
4010.65 55762.6
4013.52 55466.1
4016.4 55113.3
4019.27 54939.9
4022.14 54920
4025.01 54718.8
4027.88 54455.8
4030.75 54101.7
4033.62 53780.7
4036.49 53763.3
4039.36 53536.6
4042.23 53218.7
4045.1 53285.5
4047.98 53014.5
4050.85 52699.7
4053.72 52456.9
4056.59 52338.7
4059.46 52287.3
4062.33 51924
4065.2 51728.1
4068.07 51630.4
4070.94 51479.8
4073.81 51332.9
4076.68 51250.8
4079.56 50894
4082.43 50761.8
4085.3 50642.2
4088.17 50426.5
4091.04 50196.6
4093.91 50176.1
4096.78 50018.7
4099.65 49901.4
4102.52 49586.6
4105.39 49502.2
4108.26 49474.1
4111.14 49355.3
4114.01 49059.8
4116.88 48959
4119.75 48885.8
4122.62 48569.9
4125.49 48423.2
4128.36 48400.3
4131.23 48421.3
4134.1 48401.4
4136.97 48131.4
4139.84 47941
4142.72 47917.9
4145.59 47773.1
4148.46 47544.1
4151.33 47577
4154.2 47448.5
4157.07 47212.9
4159.94 47262.7
4162.81 47184.4
4165.68 46990.1
4168.55 46939.7
4171.42 46914.8
4174.3 46758.4
4177.17 46725.3
4180.04 46673.3
4182.91 46676.4
4185.78 46483.1
4188.65 46341.3
4191.52 46255.5
4194.39 46110.8
4197.26 46154.1
4200.13 46174.4
4203 46051.7
4205.87 45965.4
4208.75 45967.2
4211.62 45707.5
4214.49 45882.4
4217.36 45810.8
4220.23 45702.7
4223.1 45717.9
4225.97 45441.4
4228.84 45449.9
4231.71 45523.8
4234.58 45518.3
4237.45 45498.2
4240.33 45477.2
4243.2 45428.9
4246.07 45254.8
4248.94 45186.3
4251.81 45209
4254.68 45226.5
4257.55 45068.2
4260.42 45134.2
4263.29 45135.1
4266.16 45064.5
4269.03 45096.9
4271.91 45063.8
4274.78 44843.4
4277.65 44999.2
4280.52 44879.7
4283.39 44866.9
4286.26 44844.1
4289.13 45021.8
4292 45028.3
4294.87 45029.5
4297.74 44942.7
4300.61 44867.3
4303.49 44741.4
4306.36 44716.4
4309.23 44541.6
4312.1 44512.2
4314.97 44764.8
4317.84 44800.8
4320.71 44579.9
4323.58 44654.3
4326.45 44611
4329.32 44686.3
4332.19 44660.1
4335.07 44439.7
4337.94 44346.8
4340.81 44451.1
4343.68 44466.8
4346.55 44347
4349.42 44419.5
4352.29 44329.4
4355.16 44300.9
4358.03 44252.2
4360.9 44218.8
4363.77 44300.2
4366.65 44432.9
4369.52 44409
4372.39 44191.1
4375.26 44211.9
4378.13 44083.8
4381 43963.4
4383.87 43786.8
4386.74 43742.2
4389.61 43703.8
4392.48 43762.8
4395.35 43815.7
4398.23 43667.2
4401.1 43567.1
4403.97 43591.4
4406.84 43621.5
4409.71 43555.3
4412.58 43473.5
4415.45 43374.3
4418.32 43352.8
4421.19 43303.5
4424.06 43059.5
4426.93 43070.7
4429.81 42995.1
4432.68 43006.7
4435.55 42780.8
4438.42 42750.4
4441.29 42658.1
4444.16 42606.2
4447.03 42471
4449.9 42379.5
4452.77 42320.8
4455.64 42070.8
4458.51 42044.3
4461.39 41763
4464.26 41730.8
4467.13 41621.1
4470 41564.1
4472.87 41167.8
4475.74 41239
4478.61 41198.6
4481.48 40963.7
4484.35 40725.9
4487.22 40619.4
4490.09 40382.1
4492.97 40209.1
4495.84 40040.4
4498.71 39869.8
4501.58 39785.8
4504.45 39829.8
4507.32 39513.8
4510.19 39180.9
4513.06 39019.1
4515.93 38812.3
4518.8 38707.9
4521.67 38574.8
4524.55 38232.8
4527.42 37969
4530.29 37785.8
4533.16 37590.4
4536.03 37310
4538.9 37052.2
4541.77 36855.5
4544.64 36597.3
4547.51 36357.9
4550.38 36214.6
4553.25 35920.7
4556.13 35653.5
4559 35448
4561.87 35080.6
4564.74 34872.3
4567.61 34661.4
4570.48 34335.5
4573.35 34084.7
4576.22 33802.2
4579.09 33492.8
4581.96 33116.2
4584.83 32881
4587.71 32625.6
4590.58 32491.1
4593.45 32145
4596.32 31729.3
4599.19 31446.3
4602.06 31034.7
4604.93 30754.8
4607.8 30501.3
4610.67 30252
4613.54 29815.7
4616.41 29550
4619.29 29156.6
4622.16 28890.2
4625.03 28759.5
4627.9 28439.9
4630.77 27940.6
4633.64 27576.1
4636.51 27274.7
4639.38 26922.2
4642.25 26740.7
4645.12 26499.1
4647.99 25995.7
4650.87 25715.3
4653.74 25444
4656.61 24974.2
4659.48 24604.7
4662.35 24321.1
4665.22 23966.6
4668.09 23587.3
4670.96 23283.3
4673.83 22919
4676.7 22753.2
4679.57 22485.2
4682.45 22107
4685.32 21593.8
4688.19 21285
4691.06 21020.3
4693.93 20819.9
4696.8 20416.9
4699.67 20127.3
4702.54 19758.6
4705.41 19338
4708.28 18902.4
4711.15 18468.1
4714.03 18279.4
4716.9 18069.4
4719.77 17765.7
4722.64 17495.1
4725.51 17199.4
4728.38 16735.3
4731.25 16516.5
4734.12 16317.4
4736.99 15948.6
4739.86 15675.2
4742.73 15347
4745.6 14977.6
4748.48 14727.6
4751.35 14466.6
4754.22 14270.7
4757.09 13856.1
4759.96 13662.2
4762.83 13444.9
4765.7 13048.1
4768.57 12669.4
4771.44 12507.9
4774.31 12287.5
4777.18 11926.2
4780.06 11621.3
4782.93 11328.2
4785.8 11244.3
4788.67 10861.2
4791.54 10598
4794.41 10443.1
4797.28 10081
4800.15 9894.51
4803.02 9597.18
4805.89 9423.89
4808.76 9233.17
4811.64 8976.22
4814.51 8760.29
4817.38 8474.45
4820.25 8332.4
4823.12 8292.63
4825.99 7987.27
4828.86 7819.68
4831.73 7517.99
4834.6 7283.37
4837.47 7215.69
4840.34 6992.28
4843.22 6854.76
4846.09 6675.72
4848.96 6480.54
4851.83 6350.81
4854.7 6140
4857.57 5923.52
4860.44 5549.98
4863.31 5633.71
4866.18 5472.18
4869.05 5441.95
4871.92 5270.9
4874.8 4918.84
4877.67 5004.35
4880.54 4791.23
4883.41 4666.44
4886.28 4459.91
4889.15 4319.51
4892.02 4158.06
4894.89 4087.36
4897.76 4046.21
4900.63 3995.75
4903.5 3754.07
4906.38 3580.64
4909.25 3623.74
4912.12 3588.4
4914.99 3356.09
4917.86 3419.46
4920.73 3163.9
4923.6 2976.63
4926.47 2883.89
4929.34 2861.66
4932.21 2915.63
4935.08 2650.54
4937.96 2489.97
4940.83 2474.86
4943.7 2537.16
4946.57 2369.3
4949.44 2351.04
4952.31 2349.92
4955.18 2291.3
4958.05 2089.09
4960.92 2062.52
4963.79 1883.5
4966.67 2007.96
4969.54 1902.65
4972.41 1737.79
4975.28 1685.66
4978.15 1610.12
4981.02 1602.2
4983.89 1582.26
4986.76 1610.96
4989.63 1485.63
4992.5 1454.18
4995.37 1312.26
4998.24 1339.95
5001.12 1408.84
5003.99 1205.21
5006.86 1251.97
5009.73 1153.6
5012.6 993.418
5015.47 1112.1
5018.34 1044.26
5021.21 1174.49
5024.08 1039.53
5026.95 1053.63
5029.82 781.063
5032.7 884.105
5035.57 927.531
5038.44 822.349
5041.31 808.005
5044.18 744.22
5047.05 594.631
5049.92 535.504
5052.79 737.913
5055.66 808.235
5058.53 729.399
5061.4 585.38
5064.28 633.919
5067.15 592.569
5070.02 383.451
5072.89 403.122
5075.76 508.097
5078.63 488.218
5081.5 343.237
5084.37 462.572
5087.24 481.25
5090.11 423.128
5092.98 465.417
5095.86 345.259
5098.73 320.9
5101.6 388.758
5104.47 460.262
5107.34 346.103
5110.21 418.462
5113.08 339.049
5115.95 347.203
5118.82 338.387
5121.69 442.813
5124.56 348.19
5127.44 288.759
5130.31 267.781
5133.18 331.165
5136.05 369.118
5138.92 463.209
5141.79 486.573
5144.66 380.786
5147.53 332.619
5150.4 415.445
5153.27 341.59
5156.14 348.463
5159.02 413.107
5161.89 339.751
5164.76 328.739
5167.63 416.784
5170.5 406.313
5173.37 453.677
5176.24 414.112
5179.11 351.795
5181.98 398.02
5184.85 342.097
5187.72 347.236
5190.6 434.546
5193.47 518.549
5196.34 472.361
5199.21 347.257
5202.08 426.602
5204.95 492.631
5207.82 508.322
5210.69 410.283
5213.56 532.24
5216.43 415.469
5219.3 518.13
5222.18 510.937
5225.05 627.742
5227.92 447.585
5230.79 396.167
5233.66 458.907
5236.53 536.318
5239.4 468.54
5242.27 576.581
5245.14 500.41
5248.01 423.078
5250.88 483.013
5253.75 495.91
5256.63 430.617
5259.5 541.861
5262.37 479.789
5265.24 516.877
5268.11 516.884
5270.98 597.598
5273.85 538.945
5276.72 508.447
5279.59 580.097
5282.46 534.515
5285.33 536.455
5288.21 624.071
5291.08 559.062
5293.95 539.782
5296.82 529.311
5299.69 610.726
5302.56 558.352
5305.43 591.48
5308.3 582.03
5311.17 729.173
5314.04 721.56
5316.92 603.406
5319.79 564.701
5322.66 667.44
5325.53 695.511
5328.4 696.81
5331.27 601.06
5334.14 671.42
5337.01 669.922
5339.88 676.054
5342.75 580.15
5345.62 584.226
5348.5 622.136
5351.37 626.153
5354.24 599.32
5357.11 520.099
5359.98 682.48
5362.85 617.108
5365.72 713.004
5368.59 751.878
5371.46 683.036
5374.33 736.169
5377.2 730.09
5380.07 751.666
5382.95 661.192
5385.82 537.515
5388.69 562.627
5391.56 561.547
5394.43 508.825
5397.3 665.053
5400.17 710.149
5403.04 627.044
5405.91 599.125
5408.78 672.761
5411.65 583.369
5414.53 595.567
5417.4 558.726
5420.27 722.229
5423.14 791.124
5426.01 701.844
5428.88 636.995
5431.75 671.454
5434.62 553.41
5437.49 550.504
5440.36 592.078
5443.23 559.291
5446.11 488.023
5448.98 539.131
5451.85 474.998
5454.72 625.454
5457.59 631.168
5460.46 439.994
5463.33 458.544
5466.2 588.667
5469.07 621.613
5471.94 691.89
5474.81 590.975
5477.69 565.231
5480.56 408.536
5483.43 538.647
5486.3 508.201
5489.17 506.96
5492.04 583.95
5494.91 643.814
5497.78 511.869
5500.65 462.613
5503.52 406.997
5506.4 439.427
5509.27 527.488
5512.14 576.06
5515.01 517.983
5517.88 653.944
5520.75 567.476
5523.62 513.032
5526.49 640.251
5529.36 624.642
5532.23 495.761
5535.1 511.862
5537.97 420.207
5540.85 449.97
5543.72 467.213
5546.59 600.407
5549.46 591.561
5552.33 513.229
5555.2 536.561
5558.07 397.015
5560.94 441.7
5563.81 614.885
5566.68 578.7
5569.55 496.606
5572.43 475.032
5575.3 505.635
5578.17 598.761
5581.04 579.5
5583.91 654.307
5586.78 644.433
5589.65 437.92
5592.52 423.666
5595.39 507.76
5598.26 444.117
5601.13 549.775
5604.01 568.706
5606.88 580.184
5609.75 517.041
5612.62 464.045
5615.49 428.288
5618.36 531.109
5621.23 557.151
5624.1 478.447
5626.97 453.694
5629.84 485.797
5632.71 568.507
5635.59 549.551
5638.46 548.333
5641.33 540.206
5644.2 430.484
5647.07 499.673
5649.94 606.393
5652.81 553.666
5655.68 476.625
5658.55 559.8
5661.42 503.679
5664.29 486.027
5667.17 546.182
5670.04 607.194
5672.91 538.089
5675.78 472.946
5678.65 539.557
5681.52 515.432
5684.39 411.896
5687.26 459.256
5690.13 414.008
5693 458.478
5695.87 486.78
5698.75 476.407
5701.62 518.939
5704.49 585.168
5707.36 511.991
5710.23 505.561
5713.1 512.952
5715.97 443.04
5718.84 593.392
5721.71 554.064
5724.58 436.925
5727.45 402.944
5730.33 484.529
5733.2 358.109
5736.07 544.817
5738.94 496.095
5741.81 592.566
5744.68 522.358
5747.55 452.838
5750.42 399.037
5753.29 385.27
5756.16 393.363
5759.03 444.023
5761.9 486.144
5764.78 507.171
5767.65 453.422
5770.52 482.616
5773.39 459.428
5776.26 421.555
5779.13 546.382
5782 550.561
5784.87 407.733
5787.74 521.719
5790.61 550.864
5793.48 452.765
5796.36 354.51
5799.23 391.13
5802.1 534.78
5804.97 473.146
5807.84 567.295
5810.71 452.958
5813.58 441.601
5816.45 443.629
5819.32 516.877
5822.19 550.654
5825.06 529.269
5827.94 363.893
5830.81 346.08
5833.68 367.946
5836.55 501.074
5839.42 526.948
5842.29 417.44
5845.16 429.177
5848.03 423.606
5850.9 533.388
5853.77 513.215
5856.65 594.737
5859.52 450.416
5862.39 394.318
5865.26 502.557
5868.13 401.736
5871 345.212
5873.87 482.354
5876.74 398.686
