scanname 扫描259
timestamp 1/1/1970 00:35
scancount 1
laserwavenum 850.5
measurementstate Unknown
scanmode Identification
snr 4.97341 4.97341 4.97341
replacelist 0
peaks 13
717.308 0.139935 0 1.81513 0.000562202
796.422 0.0986634 0 3.45064 0.000354201
827.865 0.110401 0 6.46362 0.000469617
846.887 0.0992109 0 7.95867 0.000490293
878.549 0.105988 0 10.348 0.000501904
1144.04 0.0734169 0 1.99958 0.000113778
1296.94 0.139938 0 4.82574 0.000228799
1342.43 0.167664 0 5.50763 0.000280275
1360.89 0.130451 0 6.90368 0.000319286
1392.64 0.0605505 0 3.221 0.00015181
1416.65 0.0761844 0 3.76543 0.000176944
1533.7 0.199169 0 3.05478 0.00021583
3099.4 0.0638538 0 1.04744 9.73031e-05
finalresult No match found 1A1682	0.00433457
spectrum 2048
0 -13.262
2.86447 -13.6942
5.72895 -10.7486
8.59342 -10.8832
11.4579 -7.6828
14.3224 -4.72981
17.1868 -6.87897
20.0513 -6.88071
22.9158 -2.31224
25.7803 -2.47819
28.6447 -6.31243
31.5092 -3.75753
34.3737 -0.397152
37.2382 -4.11617
40.1026 -4.077
42.9671 -1.23485
45.8316 -2.91156
48.696 -5.22097
51.5605 -5.40534
54.425 -2.55952
57.2895 -3.1149
60.1539 -3.48692
63.0184 -3.68053
65.8829 -4.38423
68.7474 -6.26381
71.6118 -5.29665
74.4763 -2.81192
77.3408 -3.76004
80.2053 -5.23176
83.0697 -3.91215
85.9342 -5.04725
88.7987 -6.93641
91.6632 -5.88584
94.5276 -3.88114
97.3921 -4.22085
100.257 -3.96601
103.121 -4.1474
105.986 -2.35275
108.85 -3.15196
111.714 -6.08145
114.579 -5.02822
117.443 -5.35769
120.308 -5.74973
123.172 -4.98059
126.037 -4.49074
128.901 -3.46603
131.766 -3.68996
134.63 -3.11626
137.495 -2.84696
140.359 -4.95387
143.224 -8.01152
146.088 -5.82077
148.953 -5.77292
151.817 -5.50318
154.682 -5.73583
157.546 -2.88135
160.411 -3.77307
163.275 -5.13091
166.139 -3.4954
169.004 -1.05059
171.868 -1.33605
174.733 -3.38803
177.597 -4.02721
180.462 -3.92043
183.326 -4.22592
186.191 -3.905
189.055 -2.90698
191.92 -3.73944
194.784 -3.30049
197.649 -4.4914
200.513 -3.4265
203.378 -3.30941
206.242 -3.11704
209.107 -4.45417
211.971 -5.3046
214.836 -3.77726
217.7 -1.90005
220.564 -3.96021
223.429 -7.11889
226.293 -4.96012
229.158 -1.32781
232.022 -2.82492
234.887 -5.32245
237.751 -5.33327
240.616 -3.56559
243.48 -5.37636
246.345 -5.2764
249.209 -3.18488
252.074 -3.68411
254.938 -4.039
257.803 -4.74982
260.667 -5.3254
263.532 -6.49174
266.396 -5.19638
269.26 -3.10235
272.125 -4.56567
274.989 -5.27844
277.854 -3.45412
280.718 -1.87624
283.583 -3.45522
286.447 -3.96857
289.312 -4.06853
292.176 -5.61878
295.041 -6.37743
297.905 -4.43061
300.77 -3.16646
303.634 -4.10075
306.499 -6.12809
309.363 -6.17197
312.228 -3.69201
315.092 -3.2806
317.957 -4.36115
320.821 -3.54228
323.686 -4.60936
326.55 -6.43735
329.414 -5.05036
332.279 -4.06038
335.143 -4.72515
338.008 -5.08395
340.872 -4.26401
343.737 -5.0816
346.601 -4.04985
349.466 -3.92283
352.33 -4.02657
355.195 -5.07834
358.059 -4.91694
360.924 -2.39247
363.788 -1.18302
366.653 -3.06836
369.517 -5.16534
372.382 -4.61032
375.246 -5.18366
378.111 -6.22051
380.975 -2.83746
383.839 -3.04101
386.704 -6.67182
389.568 -4.68745
392.433 -0.704759
395.297 -2.0185
398.162 -3.23984
401.026 -2.70961
403.891 -3.55571
406.755 -5.43014
409.62 -4.88066
412.484 -6.64207
415.349 -4.01483
418.213 -3.58467
421.078 -4.34781
423.942 -2.71218
426.807 -4.27351
429.671 -5.08194
432.535 -3.5222
435.4 -1.31353
438.264 -2.87547
441.129 -5.07259
443.993 -1.61496
446.858 -2.53646
449.722 -6.84298
452.587 -6.28599
455.451 -5.1338
458.316 -6.05291
461.18 -5.02042
464.045 -4.86246
466.909 -3.3002
469.774 -4.06489
472.638 -2.73321
475.503 4.04617
478.367 -3.37734
481.232 -6.05152
484.096 -4.60877
486.961 -0.413753
489.825 -3.76176
492.689 -3.50401
495.554 -1.31555
498.418 0.156422
501.283 -3.37767
504.147 -4.29597
507.012 -0.759003
509.876 -5.11098
512.741 -5.68084
515.605 -3.61481
518.47 -2.64042
521.334 -3.70976
524.199 -2.97329
527.063 -2.5498
529.928 -3.20252
532.792 -4.18181
535.657 -3.03794
538.521 -1.32369
541.385 -2.5581
544.25 -5.07986
547.115 -3.53225
549.979 -0.30354
552.843 -3.91362
555.708 -5.53383
558.572 -3.55938
561.437 -3.24766
564.301 -4.09209
567.166 -2.9522
570.03 0.228494
572.895 -3.21674
575.759 -3.99703
578.624 -1.66216
581.488 0.28041
584.353 -2.6598
587.217 -3.33584
590.082 -0.941278
592.946 5.04737
595.81 -2.03547
598.675 -2.2543
601.539 4.08524
604.404 0.0258705
607.268 -1.81225
610.133 -1.0756
612.997 4.31035
615.862 -0.0811466
618.726 -0.535137
621.591 2.66148
624.455 1.20882
627.32 -0.534485
630.184 0.0999886
633.049 1.26759
635.913 0.492242
638.778 -0.288683
641.642 0.497046
644.507 0.907121
647.371 0.279685
650.235 0.119342
653.1 0.963206
655.964 1.12692
658.829 0.280336
661.693 0.635721
664.558 1.02311
667.422 0.351355
670.287 0.201436
673.151 0.857423
676.016 0.87816
678.88 0.486703
681.745 0.469018
684.609 0.847946
687.474 0.598229
690.338 0.467921
693.203 0.785608
696.067 0.830717
698.932 0.666755
701.796 0.529134
704.66 0.958975
707.525 1.01452
710.389 0.89699
713.254 1.13119
716.118 1.67496
718.983 1.52064
721.847 1.13027
724.712 1.03151
727.576 0.842622
730.441 0.428711
733.305 0.374952
736.17 0.577864
739.034 0.453158
741.899 0.381906
744.763 0.489513
747.628 0.610982
750.492 0.459566
753.357 0.437791
756.221 0.615153
759.086 0.650751
761.95 0.49892
764.814 0.568457
767.679 0.746537
770.543 0.717258
773.408 0.681452
776.272 0.692756
779.137 0.664083
782.001 0.578881
784.866 0.606163
787.73 0.743489
790.595 0.74377
793.459 0.712999
796.324 0.994545
799.188 1.24117
802.053 1.0476
804.917 0.513059
807.782 0.524983
810.646 0.548352
813.51 0.495346
816.375 0.59352
819.239 0.719168
822.104 0.787722
824.968 0.885326
827.833 1.19319
830.697 1.50456
833.562 0.852722
836.426 0.474784
839.291 0.602667
842.155 0.792945
845.02 1.09335
847.884 1.37169
850.749 0.842556
853.613 0.447215
856.478 0.379408
859.342 0.455633
862.207 0.503906
865.071 0.481162
867.935 0.565433
870.8 0.721999
873.664 0.809429
876.529 0.956071
879.393 1.22629
882.258 1.17385
885.122 0.735594
887.987 0.448662
890.851 0.387288
893.716 0.334702
896.58 0.279323
899.445 0.303128
902.309 0.33977
905.174 0.309165
908.038 0.313802
910.903 0.389956
913.767 0.400266
916.632 0.3535
919.496 0.354657
922.36 0.415095
925.225 0.392131
928.089 0.374854
930.954 0.395346
933.818 0.419984
936.683 0.385577
939.547 0.403658
942.412 0.437307
945.276 0.439207
948.141 0.418829
951.005 0.450776
953.87 0.495189
956.734 0.495441
959.599 0.496096
962.463 0.485741
965.328 0.46934
968.192 0.449602
971.057 0.454477
973.921 0.476313
976.785 0.45746
979.65 0.450029
982.514 0.478241
985.379 0.499799
988.243 0.473573
991.108 0.475094
993.972 0.501668
996.837 0.505462
999.701 0.485209
1002.57 0.497189
1005.43 0.518203
1008.29 0.505015
1011.16 0.498607
1014.02 0.517702
1016.89 0.535
1019.75 0.51906
1022.62 0.520751
1025.48 0.561109
1028.35 0.565096
1031.21 0.549034
1034.07 0.585042
1036.94 0.607817
1039.8 0.587591
1042.67 0.585586
1045.53 0.619233
1048.4 0.560452
1051.26 0.524016
1054.13 0.534828
1056.99 0.563465
1059.86 0.545663
1062.72 0.522308
1065.58 0.55879
1068.45 0.568248
1071.31 0.535468
1074.18 0.540272
1077.04 0.58018
1079.91 0.56492
1082.77 0.546323
1085.64 0.572515
1088.5 0.590107
1091.36 0.562283
1094.23 0.546601
1097.09 0.60283
1099.96 0.593664
1102.82 0.563606
1105.69 0.581555
1108.55 0.606339
1111.42 0.580612
1114.28 0.569807
1117.14 0.615247
1120.01 0.630254
1122.87 0.580867
1125.74 0.606474
1128.6 0.679378
1131.47 0.651851
1134.33 0.621944
1137.2 0.655114
1140.06 0.733915
1142.92 0.764139
1145.79 0.762461
1148.65 0.683454
1151.52 0.637111
1154.38 0.580362
1157.25 0.574952
1160.11 0.625548
1162.98 0.612768
1165.84 0.583067
1168.71 0.631261
1171.57 0.677293
1174.43 0.63206
1177.3 0.62618
1180.16 0.699668
1183.03 0.672052
1185.89 0.628875
1188.76 0.681667
1191.62 0.726511
1194.49 0.719723
1197.35 0.748571
1200.21 0.821688
1203.08 0.685942
1205.94 0.609936
1208.81 0.662908
1211.67 0.704921
1214.54 0.676763
1217.4 0.678001
1220.27 0.722167
1223.13 0.74965
1225.99 0.676455
1228.86 0.656568
1231.72 0.71605
1234.59 0.714794
1237.45 0.688506
1240.32 0.744334
1243.18 0.780918
1246.05 0.754911
1248.91 0.74802
1251.78 0.814205
1254.64 0.814901
1257.5 0.788817
1260.37 0.832926
1263.23 0.914408
1266.1 0.915582
1268.96 0.913514
1271.83 0.960255
1274.69 1.00502
1277.56 1.01595
1280.42 1.05183
1283.28 1.139
1286.15 1.18887
1289.01 1.20156
1291.88 1.28263
1294.74 1.40076
1297.61 1.4402
1300.47 1.36758
1303.34 1.33326
1306.2 1.19141
1309.06 1.04747
1311.93 1.02027
1314.79 1.10071
1317.66 1.11646
1320.52 1.11597
1323.39 1.19726
1326.25 1.28422
1329.12 1.30443
1331.98 1.3856
1334.84 1.50981
1337.71 1.59686
1340.57 1.63493
1343.44 1.68106
1346.3 1.69538
1349.17 1.54424
1352.03 1.38031
1354.9 1.24975
1357.76 1.17709
1360.62 1.20146
1363.49 1.36872
1366.35 1.39775
1369.22 1.08786
1372.08 0.756506
1374.95 0.565675
1377.81 0.495441
1380.68 0.410511
1383.54 0.411096
1386.41 0.540656
1389.27 0.663866
1392.13 0.652164
1395 0.553126
1397.86 0.522198
1400.73 0.479326
1403.59 0.462371
1406.46 0.561929
1409.32 0.664677
1412.19 0.716158
1415.05 0.807498
1417.91 0.796872
1420.78 0.672966
1423.64 0.619784
1426.51 0.638525
1429.37 0.644543
1432.24 0.61563
1435.1 0.614697
1437.97 0.672855
1440.83 0.696335
1443.69 0.638929
1446.56 0.644042
1449.42 0.705727
1452.29 0.724434
1455.15 0.721403
1458.02 0.804286
1460.88 0.89113
1463.75 0.811867
1466.61 0.790936
1469.47 0.887354
1472.34 0.860641
1475.2 0.860663
1478.07 0.93811
1480.93 0.99713
1483.8 1.00375
1486.66 1.02113
1489.53 1.09921
1492.39 1.16973
1495.26 1.11581
1498.12 1.17651
1500.98 1.3097
1503.85 1.36108
1506.71 1.28628
1509.58 1.457
1512.44 1.56302
1515.31 1.60046
1518.17 1.66912
1521.04 1.75372
1523.9 1.85308
1526.76 1.86608
1529.63 2.00736
1532.49 1.96581
1535.36 1.97356
1538.22 1.93964
1541.09 1.86822
1543.95 1.79909
1546.82 1.60118
1549.68 1.43841
1552.54 1.31017
1555.41 1.10195
1558.27 0.747226
1561.14 0.673172
1564 0.60716
1566.87 0.478852
1569.73 0.341002
1572.6 0.344897
1575.46 0.288064
1578.33 0.247737
1581.19 0.286403
1584.05 0.303372
1586.92 0.2584
1589.78 0.221213
1592.65 0.246416
1595.51 0.248212
1598.38 0.208427
1601.24 0.20455
1604.11 0.23576
1606.97 0.254862
1609.83 0.22454
1612.7 0.251384
1615.56 0.25959
1618.43 0.241516
1621.29 0.233727
1624.16 0.240055
1627.02 0.20401
1629.89 0.177106
1632.75 0.207639
1635.61 0.227563
1638.48 0.197144
1641.34 0.163824
1644.21 0.209134
1647.07 0.232029
1649.94 0.200049
1652.8 0.16261
1655.67 0.235805
1658.53 0.214753
1661.39 0.180816
1664.26 0.229559
1667.12 0.252021
1669.99 0.186339
1672.85 0.188843
1675.72 0.236518
1678.58 0.235682
1681.45 0.212335
1684.31 0.202183
1687.18 0.251352
1690.04 0.223192
1692.9 0.221666
1695.77 0.254594
1698.63 0.260461
1701.5 0.203725
1704.36 0.209641
1707.23 0.249644
1710.09 0.248732
1712.96 0.205079
1715.82 0.20684
1718.68 0.232376
1721.55 0.22828
1724.41 0.225831
1727.28 0.254164
1730.14 0.259512
1733.01 0.205057
1735.87 0.226379
1738.74 0.244949
1741.6 0.226418
1744.46 0.207588
1747.33 0.25122
1750.19 0.253811
1753.06 0.222586
1755.92 0.229661
1758.79 0.257809
1761.65 0.242939
1764.52 0.202897
1767.38 0.236597
1770.24 0.244402
1773.11 0.226915
1775.97 0.224244
1778.84 0.253247
1781.7 0.2555
1784.57 0.231612
1787.43 0.233517
1790.3 0.252881
1793.16 0.244103
1796.02 0.234784
1798.89 0.24529
1801.75 0.285056
1804.62 0.249671
1807.48 0.250551
1810.35 0.254825
1813.21 0.256487
1816.08 0.221755
1818.94 0.235502
1821.81 0.268398
1824.67 0.227136
1827.53 0.225241
1830.4 0.257888
1833.26 0.255949
1836.13 0.215619
1838.99 0.22886
1841.86 0.250094
1844.72 0.213102
1847.59 0.211836
1850.45 0.252234
1853.31 0.284525
1856.18 0.240496
1859.04 0.20657
1861.91 0.250647
1864.77 0.238684
1867.64 0.200645
1870.5 0.219341
1873.37 0.254086
1876.23 0.233105
1879.09 0.196584
1881.96 0.24881
1884.82 0.2624
1887.69 0.213853
1890.55 0.210801
1893.42 0.24008
1896.28 0.238358
1899.15 0.20068
1902.01 0.231033
1904.87 0.266265
1907.74 0.222327
1910.6 0.221919
1913.47 0.269136
1916.33 0.266276
1919.2 0.237688
1922.06 0.210559
1924.93 0.250319
1927.79 0.236443
1930.66 0.170623
1933.52 0.22791
1936.38 0.246461
1939.25 0.181273
1942.11 0.154252
1944.98 0.186984
1947.84 0.194324
1950.71 0.131995
1953.57 0.170109
1956.44 0.241095
1959.3 0.212251
1962.16 0.163611
1965.03 0.208649
1967.89 0.265061
1970.76 0.179353
1973.62 0.159738
1976.49 0.200166
1979.35 0.168511
1982.22 0.118737
1985.08 0.179175
1987.94 0.22468
1990.81 0.15002
1993.67 0.144913
1996.54 0.239011
1999.4 0.189919
2002.27 0.13058
2005.13 0.156662
2008 0.209841
2010.86 0.168793
2013.72 0.119873
2016.59 0.163622
2019.45 0.152691
2022.32 0.126377
2025.18 0.146771
2028.05 0.270632
2030.91 0.188384
2033.78 0.112199
2036.64 0.182929
2039.51 0.237907
2042.37 0.200759
2045.23 0.163373
2048.1 0.242227
2050.96 0.247651
2053.83 0.159212
2056.69 0.197331
2059.56 0.270723
2062.42 0.224723
2065.29 0.176402
2068.15 0.235488
2071.01 0.231051
2073.88 0.201139
2076.74 0.217166
2079.61 0.265713
2082.47 0.269563
2085.34 0.241684
2088.2 0.270016
2091.07 0.270433
2093.93 0.215422
2096.79 0.222824
2099.66 0.264309
2102.52 0.278605
2105.39 0.255229
2108.25 0.224848
2111.12 0.2713
2113.98 0.245889
2116.85 0.234231
2119.71 0.279723
2122.58 0.298991
2125.44 0.212252
2128.3 0.223015
2131.17 0.268517
2134.03 0.241828
2136.9 0.162008
2139.76 0.230131
2142.63 0.274645
2145.49 0.212012
2148.36 0.187067
2151.22 0.236728
2154.08 0.207057
2156.95 0.146866
2159.81 0.189513
2162.68 0.218942
2165.54 0.214974
2168.41 0.172036
2171.27 0.226474
2174.14 0.258542
2177 0.196087
2179.86 0.208447
2182.73 0.248442
2185.59 0.221033
2188.46 0.198851
2191.32 0.260815
2194.19 0.297801
2197.05 0.219387
2199.92 0.197066
2202.78 0.253981
2205.64 0.289508
2208.51 0.202903
2211.37 0.228092
2214.24 0.294607
2217.1 0.276483
2219.97 0.23344
2222.83 0.269327
2225.7 0.287108
2228.56 0.252599
2231.43 0.235701
2234.29 0.30035
2237.15 0.311474
2240.02 0.249639
2242.88 0.284185
2245.75 0.317956
2248.61 0.299993
2251.48 0.258313
2254.34 0.301158
2257.21 0.321343
2260.07 0.314508
2262.93 0.31013
2265.8 0.350194
2268.66 0.332139
2271.53 0.297752
2274.39 0.329201
2277.26 0.366924
2280.12 0.32005
2282.99 0.317713
2285.85 0.364846
2288.71 0.355164
2291.58 0.332167
2294.44 0.352104
2297.31 0.392709
2300.17 0.356658
2303.04 0.349987
2305.9 0.374584
2308.77 0.395585
2311.63 0.353423
2314.49 0.354714
2317.36 0.38385
2320.22 0.39245
2323.09 0.369966
2325.95 0.400018
2328.82 0.401612
2331.68 0.37107
2334.55 0.366202
2337.41 0.384793
2340.28 0.370972
2343.14 0.361576
2346 0.399451
2348.87 0.412142
2351.73 0.399186
2354.6 0.387849
2357.46 0.384572
2360.33 0.396032
2363.19 0.363381
2366.06 0.359521
2368.92 0.372631
2371.78 0.371767
2374.65 0.360637
2377.51 0.385288
2380.38 0.405614
2383.24 0.359848
2386.11 0.369645
2388.97 0.378302
2391.84 0.358017
2394.7 0.343209
2397.56 0.358681
2400.43 0.379814
2403.29 0.379623
2406.16 0.367007
2409.02 0.385263
2411.89 0.390235
2414.75 0.36844
2417.62 0.356057
2420.48 0.417412
2423.34 0.391835
2426.21 0.366608
2429.07 0.363174
2431.94 0.406927
2434.8 0.378923
2437.67 0.37369
2440.53 0.379686
2443.4 0.390851
2446.26 0.334169
2449.12 0.354513
2451.99 0.38999
2454.85 0.366559
2457.72 0.353
2460.58 0.381041
2463.45 0.405165
2466.31 0.368917
2469.18 0.366716
2472.04 0.401954
2474.91 0.392582
2477.77 0.355471
2480.63 0.368732
2483.5 0.394852
2486.36 0.382927
2489.23 0.375158
2492.09 0.40368
2494.96 0.401563
2497.82 0.35987
2500.69 0.367381
2503.55 0.386366
2506.41 0.38896
2509.28 0.381088
2512.14 0.390284
2515.01 0.404676
2517.87 0.373763
2520.74 0.385323
2523.6 0.386395
2526.47 0.39418
2529.33 0.361487
2532.19 0.378338
2535.06 0.410218
2537.92 0.393161
2540.79 0.368012
2543.65 0.393369
2546.52 0.416161
2549.38 0.373221
2552.25 0.378599
2555.11 0.401505
2557.98 0.389163
2560.84 0.394674
2563.7 0.407834
2566.57 0.407816
2569.43 0.387765
2572.3 0.359612
2575.16 0.418127
2578.03 0.431984
2580.89 0.376728
2583.76 0.404356
2586.62 0.418834
2589.48 0.403883
2592.35 0.388437
2595.21 0.410254
2598.08 0.429962
2600.94 0.393072
2603.81 0.403977
2606.67 0.435814
2609.54 0.415476
2612.4 0.387317
2615.26 0.426349
2618.13 0.446163
2620.99 0.41628
2623.86 0.414661
2626.72 0.433753
2629.59 0.440462
2632.45 0.422892
2635.32 0.406179
2638.18 0.444939
2641.04 0.425688
2643.91 0.413813
2646.77 0.437203
2649.64 0.455911
2652.5 0.437025
2655.37 0.442493
2658.23 0.450974
2661.1 0.440081
2663.96 0.430259
2666.82 0.44386
2669.69 0.468237
2672.55 0.451343
2675.42 0.452157
2678.28 0.472829
2681.15 0.455355
2684.01 0.42818
2686.88 0.44475
2689.74 0.466475
2692.61 0.460874
2695.47 0.446712
2698.33 0.45251
2701.2 0.464952
2704.06 0.454556
2706.93 0.450637
2709.79 0.46913
2712.66 0.474233
2715.52 0.446918
2718.39 0.448252
2721.25 0.471561
2724.11 0.470337
2726.98 0.451847
2729.84 0.472394
2732.71 0.476549
2735.57 0.441172
2738.44 0.436895
2741.3 0.453341
2744.17 0.461918
2747.03 0.448385
2749.89 0.460282
2752.76 0.479196
2755.62 0.44901
2758.49 0.430773
2761.35 0.45914
2764.22 0.457303
2767.08 0.426806
2769.95 0.442813
2772.81 0.458898
2775.68 0.455717
2778.54 0.444157
2781.4 0.471879
2784.27 0.4702
2787.13 0.425734
2790 0.440395
2792.86 0.476136
2795.73 0.463366
2798.59 0.438165
2801.46 0.458742
2804.32 0.471212
2807.18 0.451746
2810.05 0.451045
2812.91 0.465722
2815.78 0.470807
2818.64 0.444495
2821.51 0.462589
2824.37 0.489262
2827.24 0.481961
2830.1 0.458553
2832.96 0.462811
2835.83 0.479191
2838.69 0.454815
2841.56 0.471605
2844.42 0.491489
2847.29 0.49587
2850.15 0.455236
2853.02 0.4564
2855.88 0.481129
2858.74 0.475872
2861.61 0.478334
2864.47 0.503758
2867.34 0.51002
2870.2 0.494906
2873.07 0.516716
2875.93 0.530078
2878.8 0.515485
2881.66 0.493403
2884.53 0.5183
2887.39 0.528124
2890.25 0.514804
2893.12 0.521356
2895.98 0.523452
2898.85 0.530159
2901.71 0.502601
2904.58 0.505054
2907.44 0.517256
2910.31 0.495443
2913.17 0.493197
2916.03 0.488988
2918.9 0.497765
2921.76 0.462938
2924.63 0.466337
2927.49 0.508087
2930.36 0.502974
2933.22 0.469578
2936.09 0.469715
2938.95 0.491631
2941.81 0.480923
2944.68 0.476311
2947.54 0.509036
2950.41 0.497794
2953.27 0.467184
2956.14 0.474958
2959 0.498086
2961.87 0.47928
2964.73 0.456358
2967.59 0.485035
2970.46 0.484429
2973.32 0.453268
2976.19 0.449082
2979.05 0.476285
2981.92 0.46664
2984.78 0.453256
2987.65 0.487004
2990.51 0.48842
2993.38 0.471798
2996.24 0.466541
2999.1 0.482538
3001.97 0.490145
3004.83 0.469824
3007.7 0.457386
3010.56 0.480847
3013.43 0.461712
3016.29 0.470285
3019.16 0.492292
3022.02 0.470922
3024.88 0.458404
3027.75 0.475787
3030.61 0.498699
3033.48 0.487672
3036.34 0.470683
3039.21 0.475227
3042.07 0.503502
3044.94 0.496371
3047.8 0.474075
3050.66 0.501495
3053.53 0.492206
3056.39 0.473009
3059.26 0.477335
3062.12 0.508172
3064.99 0.509981
3067.85 0.481244
3070.72 0.520573
3073.58 0.525473
3076.44 0.509985
3079.31 0.501389
3082.17 0.51255
3085.04 0.509464
3087.9 0.50683
3090.77 0.564215
3093.63 0.635029
3096.5 0.607319
3099.36 0.611497
3102.23 0.63887
3105.09 0.644463
3107.95 0.547984
3110.82 0.509434
3113.68 0.477239
3116.55 0.457737
3119.41 0.442497
3122.28 0.46629
3125.14 0.477785
3128.01 0.448505
3130.87 0.439144
3133.73 0.467439
3136.6 0.464143
3139.46 0.426088
3142.33 0.431386
3145.19 0.462947
3148.06 0.458821
3150.92 0.470166
3153.79 0.467264
3156.65 0.479596
3159.51 0.462612
3162.38 0.462454
3165.24 0.485865
3168.11 0.462641
3170.97 0.439489
3173.84 0.446019
3176.7 0.45503
3179.57 0.426809
3182.43 0.428515
3185.29 0.457416
3188.16 0.470269
3191.02 0.45546
3193.89 0.455679
3196.75 0.48815
3199.62 0.466226
3202.48 0.466964
3205.35 0.469223
3208.21 0.465593
3211.07 0.457381
3213.94 0.453654
3216.8 0.481235
3219.67 0.477177
3222.53 0.455155
3225.4 0.477899
3228.26 0.470374
3231.13 0.451765
3233.99 0.428994
3236.86 0.455769
3239.72 0.46386
3242.58 0.452973
3245.45 0.46288
3248.31 0.510877
3251.18 0.484707
3254.04 0.44628
3256.91 0.480194
3259.77 0.497034
3262.64 0.466477
3265.5 0.459186
3268.36 0.501842
3271.23 0.49984
3274.09 0.459464
3276.96 0.450747
3279.82 0.479128
3282.69 0.48066
3285.55 0.441828
3288.42 0.478819
3291.28 0.463582
3294.14 0.428381
3297.01 0.45362
3299.87 0.49241
3302.74 0.488926
3305.6 0.447145
3308.47 0.465374
3311.33 0.509441
3314.2 0.478419
3317.06 0.449817
3319.93 0.484724
3322.79 0.514047
3325.65 0.452072
3328.52 0.465382
3331.38 0.516663
3334.25 0.447342
3337.11 0.443704
3339.98 0.482265
3342.84 0.49808
3345.71 0.475652
3348.57 0.477436
3351.43 0.494405
3354.3 0.503923
3357.16 0.478566
3360.03 0.4921
3362.89 0.499817
3365.76 0.4424
3368.62 0.444028
3371.49 0.503047
3374.35 0.504493
3377.21 0.478076
3380.08 0.489635
3382.94 0.525852
3385.81 0.474868
3388.67 0.433498
3391.54 0.486549
3394.4 0.514915
3397.27 0.479024
3400.13 0.478117
3402.99 0.508709
3405.86 0.486991
3408.72 0.461027
3411.59 0.476951
3414.45 0.514476
3417.32 0.469153
3420.18 0.456682
3423.05 0.467189
3425.91 0.483916
3428.77 0.451376
3431.64 0.461588
3434.5 0.509087
3437.37 0.512547
3440.23 0.499057
3443.1 0.50499
3445.96 0.485168
3448.83 0.470904
3451.69 0.437676
3454.56 0.52231
3457.42 0.51495
3460.28 0.469038
3463.15 0.466138
3466.01 0.508868
3468.88 0.499735
3471.74 0.478623
3474.61 0.495592
3477.47 0.507999
3480.34 0.493014
3483.2 0.455792
3486.06 0.524602
3488.93 0.478061
3491.79 0.474189
3494.66 0.5091
3497.52 0.513689
3500.39 0.465078
3503.25 0.461169
3506.12 0.492894
3508.98 0.512938
3511.84 0.475007
3514.71 0.470354
3517.57 0.55147
3520.44 0.51988
3523.3 0.463549
3526.17 0.501631
3529.03 0.531133
3531.9 0.48584
3534.76 0.502688
3537.62 0.497718
3540.49 0.50585
3543.35 0.488666
3546.22 0.492898
3549.08 0.492619
3551.95 0.499442
3554.81 0.451466
3557.68 0.526514
3560.54 0.507514
3563.41 0.520978
3566.27 0.498075
3569.13 0.518103
3572 0.505871
3574.86 0.495974
3577.73 0.528272
3580.59 0.538674
3583.46 0.47448
3586.32 0.503387
3589.19 0.515517
3592.05 0.534479
3594.91 0.467114
3597.78 0.481837
3600.64 0.531864
3603.51 0.486866
3606.37 0.494767
3609.24 0.510133
3612.1 0.509842
3614.97 0.519867
3617.83 0.512331
3620.69 0.509338
3623.56 0.482975
3626.42 0.462374
3629.29 0.499809
3632.15 0.522626
3635.02 0.488431
3637.88 0.495277
3640.75 0.543878
3643.61 0.537736
3646.47 0.505205
3649.34 0.464227
3652.2 0.503302
3655.07 0.490251
3657.93 0.494476
3660.8 0.538792
3663.66 0.540385
3666.53 0.487373
3669.39 0.473138
3672.26 0.543572
3675.12 0.486911
3677.98 0.502699
3680.85 0.53692
3683.71 0.537541
3686.58 0.520406
3689.44 0.456347
3692.31 0.52845
3695.17 0.553015
3698.04 0.507196
3700.9 0.504957
3703.76 0.508835
3706.63 0.504728
3709.49 0.478313
3712.36 0.505417
3715.22 0.520776
3718.09 0.495632
3720.95 0.52016
3723.82 0.553695
3726.68 0.517297
3729.54 0.505959
3732.41 0.520777
3735.27 0.534756
3738.14 0.490041
3741 0.536422
3743.87 0.528141
3746.73 0.569418
3749.6 0.466995
3752.46 0.499058
3755.32 0.572347
3758.19 0.516069
3761.05 0.495007
3763.92 0.53515
3766.78 0.552666
3769.65 0.544739
3772.51 0.526943
3775.38 0.530106
3778.24 0.512848
3781.11 0.485618
3783.97 0.509818
3786.83 0.520929
3789.7 0.536823
3792.56 0.535553
3795.43 0.513302
3798.29 0.540555
3801.16 0.500094
3804.02 0.547881
3806.89 0.560314
3809.75 0.508886
3812.61 0.517539
3815.48 0.527173
3818.34 0.561143
3821.21 0.492733
3824.07 0.536091
3826.94 0.535364
3829.8 0.5153
3832.67 0.500265
3835.53 0.509773
3838.39 0.543131
3841.26 0.528104
3844.12 0.497147
3846.99 0.554139
3849.85 0.564751
3852.72 0.474849
3855.58 0.493348
3858.45 0.539797
3861.31 0.577338
3864.17 0.514471
3867.04 0.540908
3869.9 0.558633
3872.77 0.508612
3875.63 0.4867
3878.5 0.508892
3881.36 0.510579
3884.23 0.49827
3887.09 0.550181
3889.96 0.577654
3892.82 0.54749
3895.68 0.523836
3898.55 0.564207
3901.41 0.548333
3904.28 0.49203
3907.14 0.489478
3910.01 0.565071
3912.87 0.520378
3915.74 0.500266
3918.6 0.529053
3921.46 0.570609
3924.33 0.506739
3927.19 0.508065
3930.06 0.558823
3932.92 0.546581
3935.79 0.531245
3938.65 0.525925
3941.52 0.529165
3944.38 0.52836
3947.24 0.506095
3950.11 0.526716
3952.97 0.522157
3955.84 0.493969
3958.7 0.523392
3961.57 0.534465
3964.43 0.547862
3967.3 0.517657
3970.16 0.537693
3973.02 0.573796
3975.89 0.547422
3978.75 0.537184
3981.62 0.562608
3984.48 0.564074
3987.35 0.542363
3990.21 0.544281
3993.08 0.510357
3995.94 0.529937
3998.81 0.53602
4001.67 0.565041
4004.53 0.590275
4007.4 0.52467
4010.26 0.500374
4013.13 0.531175
4015.99 0.554173
4018.86 0.530996
4021.72 0.53113
4024.59 0.566455
4027.45 0.53729
4030.31 0.519475
4033.18 0.578808
4036.04 0.590132
4038.91 0.538362
4041.77 0.52822
4044.64 0.573217
4047.5 0.540613
4050.37 0.526665
4053.23 0.587789
4056.09 0.593885
4058.96 0.542821
4061.82 0.515843
4064.69 0.569922
4067.55 0.596679
4070.42 0.485362
4073.28 0.537656
4076.15 0.573537
4079.01 0.527234
4081.88 0.510982
4084.74 0.569263
4087.6 0.555641
4090.47 0.53438
4093.33 0.522174
4096.2 0.565985
4099.06 0.549334
4101.93 0.562073
4104.79 0.580742
4107.66 0.58509
4110.52 0.516707
4113.38 0.499465
4116.25 0.568653
4119.11 0.559164
4121.98 0.51627
4124.84 0.505055
4127.71 0.559162
4130.57 0.549784
4133.44 0.580735
4136.3 0.602455
4139.16 0.607959
4142.03 0.569647
4144.89 0.54925
4147.76 0.59068
4150.62 0.589582
4153.49 0.546857
4156.35 0.578295
4159.22 0.599267
4162.08 0.554095
4164.94 0.531752
4167.81 0.607859
4170.67 0.589213
4173.54 0.504467
4176.4 0.520767
4179.27 0.585282
4182.13 0.582733
4185 0.572957
4187.86 0.649317
4190.73 0.588672
4193.59 0.555673
4196.45 0.561515
4199.32 0.594485
4202.18 0.599718
4205.05 0.513975
4207.91 0.535782
4210.78 0.605431
4213.64 0.577362
4216.5 0.586979
4219.37 0.615307
4222.23 0.566785
4225.1 0.497569
4227.96 0.543594
4230.83 0.625508
4233.69 0.566409
4236.56 0.567764
4239.42 0.589885
4242.29 0.550165
4245.15 0.575051
4248.01 0.5988
4250.88 0.608511
4253.74 0.603117
4256.61 0.566884
4259.47 0.536426
4262.34 0.578899
4265.2 0.545027
4268.07 0.600952
4270.93 0.615007
4273.79 0.557876
4276.66 0.520404
4279.52 0.540207
4282.39 0.619329
4285.25 0.575822
4288.12 0.557892
4290.98 0.55487
4293.85 0.580324
4296.71 0.570272
4299.57 0.564385
4302.44 0.608866
4305.3 0.570428
4308.17 0.581681
4311.03 0.559738
4313.9 0.596617
4316.76 0.584435
4319.63 0.550509
4322.49 0.583345
4325.36 0.584446
4328.22 0.528633
4331.08 0.56601
4333.95 0.602961
4336.81 0.592257
4339.68 0.557865
4342.54 0.592897
4345.41 0.585338
4348.27 0.570822
4351.14 0.552905
4354 0.673011
4356.86 0.593258
4359.73 0.527328
4362.59 0.530446
4365.46 0.596862
4368.32 0.547394
4371.19 0.514305
4374.05 0.602649
4376.92 0.574249
4379.78 0.556885
4382.64 0.616127
4385.51 0.613603
4388.37 0.575752
4391.24 0.592884
4394.1 0.593462
4396.97 0.579677
4399.83 0.562803
4402.7 0.584162
4405.56 0.609046
4408.43 0.590774
4411.29 0.513622
4414.15 0.5652
4417.02 0.628482
4419.88 0.633319
4422.75 0.565039
4425.61 0.596638
4428.48 0.610741
4431.34 0.57343
4434.21 0.601542
4437.07 0.620245
4439.93 0.649142
4442.8 0.614572
4445.66 0.632493
4448.53 0.57814
4451.39 0.541873
4454.26 0.591021
4457.12 0.60195
4459.99 0.606147
4462.85 0.585356
4465.71 0.57038
4468.58 0.560858
4471.44 0.555811
4474.31 0.559619
4477.17 0.623915
4480.04 0.608461
4482.9 0.544268
4485.77 0.573249
4488.63 0.621268
4491.49 0.636798
4494.36 0.573483
4497.22 0.626439
4500.09 0.658244
4502.95 0.589351
4505.82 0.57629
4508.68 0.590591
4511.55 0.599903
4514.41 0.534919
4517.27 0.556781
4520.14 0.633225
4523 0.655815
4525.87 0.571271
4528.73 0.574327
4531.6 0.573435
4534.46 0.577438
4537.33 0.570223
4540.19 0.585954
4543.06 0.58155
4545.92 0.574878
4548.78 0.641366
4551.65 0.644228
4554.51 0.63071
4557.38 0.593984
4560.24 0.630756
4563.11 0.585324
4565.97 0.52997
4568.84 0.562191
4571.7 0.602828
4574.56 0.568401
4577.43 0.502946
4580.29 0.650456
4583.16 0.620435
4586.02 0.5748
4588.89 0.626257
4591.75 0.648782
4594.62 0.635208
4597.48 0.607253
4600.34 0.640131
4603.21 0.57185
4606.07 0.510634
4608.94 0.528651
4611.8 0.650638
4614.67 0.584945
4617.53 0.526748
4620.4 0.521428
4623.26 0.611816
4626.12 0.524961
4628.99 0.584669
4631.85 0.641199
4634.72 0.61751
4637.58 0.531274
4640.45 0.570688
4643.31 0.640515
4646.18 0.553893
4649.04 0.549051
4651.91 0.543281
4654.77 0.620864
4657.63 0.597516
4660.5 0.557646
4663.36 0.607538
4666.23 0.521655
4669.09 0.496449
4671.96 0.580539
4674.82 0.584253
4677.69 0.537136
4680.55 0.499795
4683.41 0.5607
4686.28 0.660928
4689.14 0.592811
4692.01 0.51906
4694.87 0.556663
4697.74 0.513132
4700.6 0.419896
4703.47 0.469305
4706.33 0.51954
4709.19 0.503822
4712.06 0.497964
4714.92 0.639709
4717.79 0.607154
4720.65 0.537347
4723.52 0.569863
4726.38 0.644159
4729.25 0.592465
4732.11 0.409374
4734.97 0.527962
4737.84 0.519452
4740.7 0.469377
4743.57 0.494379
4746.43 0.565834
4749.3 0.582353
4752.16 0.374195
4755.03 0.626648
4757.89 0.707161
4760.76 0.556481
4763.62 0.575519
4766.48 0.684401
4769.35 0.439015
4772.21 0.550351
4775.08 0.623932
4777.94 0.685239
4780.81 0.622584
4783.67 0.345757
4786.54 0.561458
4789.4 0.615514
4792.26 0.46238
4795.13 0.59
4797.99 0.600153
4800.86 0.397938
4803.72 0.316923
4806.59 0.54052
4809.45 0.669915
4812.32 0.406467
4815.18 0.216411
4818.04 0.221255
4820.91 0.472977
4823.77 0.430009
4826.64 0.472884
4829.5 0.461704
4832.37 0.571503
4835.23 0.30719
4838.1 0.238873
4840.96 0.535926
4843.83 0.375667
4846.69 0.393104
4849.55 0.550502
4852.42 0.59583
4855.28 0.431481
4858.15 0.482952
4861.01 0.287153
4863.88 0.384647
4866.74 0.179115
4869.6 0.562166
4872.47 0.716289
4875.33 0.329334
4878.2 0.661272
4881.06 0.813514
4883.93 0.648113
4886.79 0.289415
4889.66 0.385613
4892.52 0.536424
4895.39 -0.0711874
4898.25 0.444981
4901.11 0.474482
4903.98 0.576756
4906.84 0.042413
4909.71 -0.13946
4912.57 0.594483
4915.44 0.235871
4918.3 -0.0398036
4921.17 1.19403
4924.03 1.15776
4926.89 0.191809
4929.76 0.702068
4932.62 0.146547
4935.49 -0.124646
4938.35 0.0159081
4941.22 0.00198798
4944.08 1.4245
4946.95 0.433298
4949.81 -0.425347
4952.67 0.202676
4955.54 1.82619
4958.4 -0.803222
4961.27 -0.238194
4964.13 0.89006
4967 -0.758361
4969.86 -0.204105
4972.73 0.338069
4975.59 0.940855
4978.46 -0.282789
4981.32 -0.274772
4984.18 0.281983
4987.05 0.0769041
4989.91 -1.05171
4992.78 -0.372437
4995.64 0.779912
4998.51 -0.00494451
5001.37 1.4614
5004.24 0.731362
5007.1 0.285985
5009.96 -0.666233
5012.83 0.448906
5015.69 2.58478
5018.56 -1.53073
5021.42 -2.57743
5024.29 2.63907
5027.15 0.983863
5030.02 -0.406136
5032.88 -1.42567
5035.75 2.62711
5038.61 -2.71551
5041.47 -1.75439
5044.34 2.08618
5047.2 -0.435973
5050.07 -1.77413
5052.93 -1.70946
5055.8 2.51643
5058.66 -0.266109
5061.52 -0.747979
5064.39 -1.85447
5067.25 0.00977726
5070.12 -1.87494
5072.98 1.2562
5075.85 -0.489978
5078.71 -1.31032
5081.58 -0.0468444
5084.44 -1.04543
5087.31 1.11469
5090.17 -0.149892
5093.03 -1.10051
5095.9 -0.506247
5098.76 6.86774
5101.63 -0.432257
5104.49 1.83064
5107.36 2.80401
5110.22 -0.250926
5113.09 0.251369
5115.95 3.57382
5118.81 2.72287
5121.68 1.8965
5124.54 2.40059
5127.41 0.729975
5130.27 0.804353
5133.14 1.65887
5136 2.19887
5138.87 -0.0623313
5141.73 1.74807
5144.59 2.96096
5147.46 0.608669
5150.32 3.01791
5153.19 3.27142
5156.05 0.103798
5158.92 -0.329218
5161.78 3.58369
5164.65 2.10468
5167.51 -1.72903
5170.38 -1.42482
5173.24 3.83219
5176.1 3.74663
5178.97 1.39353
5181.83 0.360055
5184.7 1.49315
5187.56 -1.5019
5190.43 0.254362
5193.29 5.44889
5196.16 8.42336
5199.02 -1.30162
5201.88 -1.23604
5204.75 2.07085
5207.61 2.23925
5210.48 -0.380745
5213.34 1.38167
5216.21 4.58276
5219.07 3.93918
5221.94 1.58733
5224.8 3.00814
5227.66 3.45684
5230.53 7.46366
5233.39 2.30941
5236.26 5.18804
5239.12 -0.329632
5241.99 -1.00821
5244.85 1.31193
5247.72 1.85454
5250.58 1.03209
5253.44 2.51532
5256.31 5.19739
5259.17 0.509112
5262.04 -0.20622
5264.9 1.48907
5267.77 2.28208
5270.63 -2.52673
5273.5 0.196211
5276.36 2.73947
5279.23 0.839353
5282.09 -1.66685
5284.95 1.16748
5287.82 2.63822
5290.68 -1.32798
5293.55 1.40629
5296.41 2.24577
5299.28 0.777575
5302.14 -1.02012
5305.01 0.220536
5307.87 4.45111
5310.73 1.50639
5313.6 1.98366
5316.46 5.64385
5319.33 -0.75255
5322.19 -0.141751
5325.06 2.65288
5327.92 7.67493
5330.79 -0.932774
5333.65 -2.87088
5336.51 -2.37924
5339.38 3.9454
5342.24 0.922988
5345.11 1.39898
5347.97 3.64483
5350.84 4.72308
5353.7 1.00119
5356.57 0.601721
5359.43 3.7667
5362.29 1.78742
5365.16 0.427458
5368.02 0.55142
5370.89 4.55608
5373.75 2.16384
5376.62 2.20596
5379.48 3.63289
5382.35 2.66345
5385.21 -0.108012
5388.08 2.38912
5390.94 2.29609
5393.8 2.0377
5396.67 0.173284
5399.53 3.10274
5402.4 2.38326
5405.26 0.622455
5408.13 1.65657
5410.99 6.15957
5413.86 1.15803
5416.72 -0.752272
5419.58 2.78818
5422.45 1.34496
5425.31 0.0610521
5428.18 -0.417415
5431.04 0.325686
5433.91 9.31475
5436.77 2.53933
5439.64 1.9621
5442.5 1.46799
5445.36 0.215585
5448.23 -0.00261007
5451.09 2.00864
5453.96 -0.145005
5456.82 -2.2174
5459.69 1.04553
5462.55 4.14544
5465.42 0.433196
5468.28 -0.233525
5471.15 9.33108
5474.01 0.293938
5476.87 2.45939
5479.74 -0.401067
5482.6 0.980619
5485.47 1.80587
5488.33 -0.927421
5491.2 1.6733
5494.06 4.66253
5496.92 0.187764
5499.79 1.826
5502.65 4.52196
5505.52 -0.200925
5508.38 -2.05406
5511.25 -1.09422
5514.11 3.70019
5516.98 4.84416
5519.84 -0.388026
5522.71 0.616601
5525.57 0.987328
5528.43 -0.0283235
5531.3 -0.636953
5534.16 -0.133002
5537.03 1.39513
5539.89 0.245436
5542.76 0.0459805
5545.62 3.28699
5548.49 0.271967
5551.35 -2.01782
5554.21 3.40695
5557.08 1.45541
5559.94 -0.243585
5562.81 -0.406495
5565.67 3.23262
5568.54 0.929621
5571.4 -1.83474
5574.27 -0.569645
5577.13 3.77147
5579.99 1.82963
5582.86 -0.822102
5585.72 2.9211
5588.59 -0.187686
5591.45 -0.208352
5594.32 0.550754
5597.18 2.71735
5600.05 4.68913
5602.91 -0.364974
5605.78 0.934118
5608.64 3.02103
5611.5 2.29029
5614.37 0.0590802
5617.23 2.15425
5620.1 4.94714
5622.96 0.0531533
5625.83 0.878725
5628.69 5.93046
5631.56 -1.3612
5634.42 -0.742088
5637.28 1.56052
5640.15 5.64459
5643.01 -0.646469
5645.88 -0.711243
5648.74 -0.172791
5651.61 1.81771
5654.47 -1.24868
5657.34 0.0489058
5660.2 1.07055
5663.06 -2.07223
5665.93 -1.26255
5668.79 1.4234
5671.66 7.93088
5674.52 -1.05092
5677.39 -1.32003
5680.25 12.3833
5683.12 1.90524
5685.98 1.61221
5688.84 3.52192
5691.71 0.644013
5694.57 -1.38921
5697.44 -0.654963
5700.3 -0.661622
5703.17 4.54304
5706.03 -2.91953
5708.9 0.686768
5711.76 2.4742
5714.62 -1.21276
5717.49 0.936887
5720.35 6.12248
5723.22 2.59532
5726.08 0.33085
5728.95 1.1609
5731.81 7.75444
5734.68 -0.693488
5737.54 -1.47899
5740.41 -2.12483
5743.27 1.83774
5746.13 -0.420387
5749 -0.617766
5751.86 -0.652639
5754.73 1.34444
5757.59 5.24659
5760.46 2.52591
5763.32 4.39673
5766.19 -0.44681
5769.05 -0.72476
5771.91 1.81139
5774.78 5.77843
5777.64 1.68379
5780.51 -0.148479
5783.37 6.26998
5786.24 3.76088
5789.1 0.72157
5791.97 5.25219
5794.83 -0.125248
5797.69 -1.64884
5800.56 -0.156703
5803.42 3.34954
5806.29 3.85467
5809.15 -2.0853
5812.02 -1.82404
5814.88 4.16417
5817.75 -0.160706
5820.61 -0.946971
5823.48 0.888095
5826.34 3.00752
5829.2 -2.34615
5832.07 -1.60865
5834.93 3.23391
5837.8 0.0162757
5840.66 0.0264858
5843.53 1.3565
5846.39 4.45066
5849.26 -0.55383
5852.12 -2.10249
5854.98 0.909603
5857.85 0.273964
5860.71 2.04594
5863.58 3.7059
spectrumdark 2048
0 2339.81
2.8709 1875.81
5.74181 747.977
8.61271 753.224
11.4836 667.676
14.3545 832.981
17.2254 971.428
20.0963 743.858
22.9672 1027.72
25.8381 1381.52
28.709 1627.68
31.5799 1967.14
34.4509 1939.52
37.3218 1872.85
40.1927 2303.04
43.0636 1758.12
45.9345 2215.22
48.8054 2196.55
51.6763 1825.15
54.5472 2506.42
57.4181 2916.81
60.289 3092.91
63.1599 2784.53
66.0308 3014.99
68.9017 2662.74
71.7726 2935.72
74.6435 3658.73
77.5144 3565.4
80.3853 2565.56
83.2562 2386.82
86.1271 2318.96
88.998 2572.72
91.8689 3036.11
94.7398 3029.72
97.6107 3162.59
100.482 4226.57
103.353 3477.83
106.223 4040.64
109.094 4244.38
111.965 2392.59
114.836 2368.89
117.707 2176.82
120.578 2698.72
123.449 3118.7
126.32 3323.92
129.191 3710.4
132.062 3060.6
134.932 3149.9
137.803 4163.06
140.674 3425.04
143.545 2169.5
146.416 2522.03
149.287 2498.51
152.158 3756.43
155.029 3694.07
157.9 3158.98
160.771 3536.41
163.642 3520.93
166.512 4193.53
169.383 3962.32
172.254 3562.28
175.125 3901.74
177.996 3608.45
180.867 4101.11
183.738 4414.61
186.609 3918.13
189.48 4460.8
192.351 3912.25
195.221 3593.06
198.092 2644.41
200.963 3651.96
203.834 3420.89
206.705 3234.66
209.576 3279.21
212.447 3275.32
215.318 3456.29
218.189 2998.74
221.06 3486.44
223.931 2444.98
226.801 3147.22
229.672 3020.59
232.543 3190.29
235.414 2949.69
238.285 2439.17
241.156 2583.86
244.027 2570.11
246.898 2558.28
249.769 2893.16
252.64 2792.1
255.51 2747.82
258.381 2260.06
261.252 2408
264.123 2312.11
266.994 2742.67
269.865 3432.52
272.736 2493.05
275.607 2118.41
278.478 2293.45
281.349 2528.33
284.22 2722.27
287.09 2784.59
289.961 2335.43
292.832 1970.77
295.703 2000.27
298.574 2757.05
301.445 2329.06
304.316 2479.07
307.187 2120.73
310.058 1927.61
312.929 2332.83
315.799 2531.25
318.67 2316.62
321.541 2522.22
324.412 2277.93
327.283 1766.08
330.154 2252.68
333.025 2377.94
335.896 2353.79
338.767 2056.98
341.638 2043.14
344.509 1961.74
347.379 2747.04
350.25 2899.54
353.121 2608.17
355.992 2288.8
358.863 2525.51
361.734 3099.43
364.605 2984.98
367.476 2715.06
370.347 2022.85
373.218 2564.31
376.088 2324.28
378.959 1542.03
381.83 2205.68
384.701 2447.39
387.572 1761.68
390.443 2561.29
393.314 2985.57
396.185 2444.77
399.056 2560.5
401.927 2212.95
404.798 1726.76
407.668 1826.81
410.539 2404.6
413.41 1440.59
416.281 1727.1
419.152 1866.39
422.023 1809.03
424.894 1428.98
427.765 2201.47
430.636 2391.42
433.507 2627.08
436.378 2084.49
439.248 1578.68
442.119 1640.25
444.99 2201.27
447.861 2408.13
450.732 1716.53
453.603 1842.51
456.474 1679.86
459.345 1354.82
462.216 1796.89
465.087 1260.5
467.957 1804.85
470.828 1913.34
473.699 1434.98
476.57 1732.84
479.441 2028.42
482.312 1572.1
485.183 1811.69
488.054 1797.23
490.925 1337.67
493.796 1789.11
496.666 1721.99
499.537 1724.02
502.408 1788.04
505.279 1596.73
508.15 1581.5
511.021 1229.32
513.892 1669.8
516.763 2037.5
519.634 1615.77
522.505 1884.42
525.376 2285.84
528.246 1970
531.117 1678.69
533.988 1905.8
536.859 2097.39
539.73 1829.34
542.601 1920.57
545.472 1345.82
548.343 1895.83
551.214 2547.65
554.085 1998.41
556.955 1800.94
559.826 1845.02
562.697 1814.62
565.568 2192.18
568.439 1886.64
571.31 1786.1
574.181 1977.83
577.052 2285.47
579.923 2650.42
582.794 2605.22
585.664 2998.81
588.535 3127.58
591.406 3373.4
594.277 3616.94
597.148 3928.22
600.019 4888.78
602.89 5579.62
605.761 6228.4
608.632 6431.52
611.503 6740.25
614.374 8082.1
617.244 8936.4
620.115 9928.66
622.986 12150.5
625.857 13783.6
628.728 15690.4
631.599 17659.8
634.47 18448.2
637.341 19807.6
640.212 21836.6
643.083 23924.2
645.953 26661.8
648.824 28092.3
651.695 31108.2
654.566 33675.5
657.437 35272.5
660.308 37350.4
663.179 40179.4
666.05 41514.5
668.921 39510
671.792 47398.6
674.663 50429.5
677.533 52551.1
680.404 55286.3
683.275 57416.4
686.146 59347
689.017 61676.8
691.888 63904.3
694.759 66586.8
697.63 69297.5
700.501 71698.9
703.372 74469.6
706.242 77374.9
709.113 80241.2
711.984 82677.8
714.855 85105.6
717.726 88653
720.597 91229.8
723.468 94245.1
726.339 98414.4
729.21 102036
732.081 104860
734.952 107806
737.822 110605
740.693 113462
743.564 117614
746.435 121562
749.306 126129
752.177 129800
755.048 133568
757.919 137232
760.79 141207
763.661 145889
766.531 149598
769.402 154455
772.273 158997
775.144 162998
778.015 167369
780.886 170850
783.757 174954
786.628 179228
789.499 182047
792.37 185115
795.24 188406
798.111 192302
800.982 196685
803.853 199719
806.724 203432
809.595 211178
812.466 216953
815.337 222495
818.208 226940
821.079 231255
823.95 236454
826.82 241011
829.691 246271
832.562 250061
835.433 254290
838.304 257562
841.175 257568
844.046 265011
846.917 271694
849.788 275726
852.659 280129
855.53 284248
858.4 289012
861.271 293204
864.142 296353
867.013 301046
869.884 304762
872.755 308807
875.626 313088
878.497 317217
881.368 322398
884.239 327075
887.109 331607
889.98 336742
892.851 341162
895.722 346487
898.593 351255
901.464 356109
904.335 361441
907.206 366231
910.077 370992
912.948 376063
915.819 380116
918.689 387667
921.56 394090
924.431 400395
927.302 406185
930.173 411252
933.044 417435
935.915 425729
938.786 433556
941.657 441887
944.528 448763
947.398 456959
950.269 465965
953.14 474277
956.011 483832
958.882 493997
961.753 504384
964.624 515231
967.495 526712
970.366 539430
973.237 551332
976.107 563749
978.978 577345
981.849 589099
984.72 601012
987.591 612838
990.462 622824
993.333 631080
996.204 638094
999.075 642768
1001.95 645245
1004.82 645180
1007.69 643230
1010.56 637949
1013.43 630824
1016.3 622768
1019.17 614092
1022.04 605302
1024.91 595611
1027.78 585394
1030.65 574694
1033.53 563210
1036.4 551633
1039.27 539357
1042.14 526642
1045.01 513865
1047.88 501211
1050.75 488221
1053.62 476626
1056.49 464109
1059.36 450994
1062.23 438465
1065.11 425529
1067.98 413094
1070.85 401071
1073.72 388796
1076.59 377120
1079.46 365274
1082.33 354675
1085.2 346458
1088.07 340065
1090.94 333736
1093.81 328163
1096.69 323525
1099.56 320754
1102.43 317855
1105.3 315353
1108.17 313479
1111.04 312089
1113.91 311198
1116.78 310753
1119.65 310224
1122.52 310300
1125.39 310191
1128.27 310140
1131.14 310096
1134.01 310283
1136.88 310594
1139.75 310028
1142.62 309666
1145.49 309358
1148.36 308460
1151.23 307641
1154.1 306499
1156.97 304967
1159.85 303198
1162.72 301496
1165.59 299590
1168.46 297354
1171.33 295054
1174.2 292757
1177.07 289862
1179.94 287411
1182.81 284539
1185.68 281220
1188.55 277781
1191.43 274876
1194.3 271891
1197.17 269607
1200.04 266658
1202.91 264102
1205.78 261874
1208.65 260085
1211.52 258790
1214.39 257239
1217.26 257413
1220.13 257750
1223.01 258714
1225.88 260672
1228.75 263537
1231.62 267234
1234.49 271075
1237.36 275783
1240.23 280905
1243.1 286778
1245.97 292483
1248.84 298521
1251.71 303505
1254.59 307592
1257.46 309339
1260.33 309248
1263.2 309366
1266.07 310295
1268.94 312001
1271.81 312936
1274.68 313193
1277.55 313743
1280.42 313507
1283.29 313547
1286.17 312346
1289.04 311299
1291.91 311021
1294.78 310261
1297.65 309209
1300.52 308403
1303.39 307633
1306.26 306645
1309.13 304928
1312 302782
1314.87 300250
1317.75 299737
1320.62 299146
1323.49 300365
1326.36 300548
1329.23 300257
1332.1 298721
1334.97 296504
1337.84 292336
1340.71 284778
1343.58 281805
1346.45 284360
1349.33 285589
1352.2 285191
1355.07 285517
1357.94 286275
1360.81 287742
1363.68 283491
1366.55 284476
1369.42 289184
1372.29 287239
1375.16 283934
1378.03 282349
1380.91 287046
1383.78 287991
1386.65 286347
1389.52 277532
1392.39 282457
1395.26 278632
1398.13 270220
1401 273690
1403.87 280446
1406.74 279097
1409.61 280925
1412.48 281634
1415.36 279372
1418.23 272837
1421.1 253560
1423.97 265904
1426.84 272570
1429.71 276546
1432.58 271079
1435.45 271783
1438.32 255391
1441.19 263740
1444.06 275676
1446.94 274018
1449.81 266162
1452.68 267410
1455.55 262726
1458.42 235682
1461.29 239080
1464.16 267437
1467.03 259116
1469.9 265300
1472.77 260090
1475.64 239645
1478.52 257890
1481.39 270036
1484.26 271174
1487.13 270547
1490 257797
1492.87 250733
1495.74 262492
1498.61 247506
1501.48 250834
1504.35 257356
1507.22 235959
1510.1 210640
1512.97 246242
1515.84 249638
1518.71 240568
1521.58 233203
1524.45 218311
1527.32 238337
1530.19 242943
1533.06 249571
1535.93 234095
1538.8 234198
1541.68 199814
1544.55 199182
1547.42 222280
1550.29 237776
1553.16 235110
1556.03 228734
1558.9 213396
1561.77 184118
1564.64 231190
1567.51 245077
1570.38 244626
1573.26 235529
1576.13 246464
1579 223695
1581.87 248294
1584.74 252708
1587.61 252382
1590.48 250851
1593.35 248110
1596.22 245325
1599.09 242315
1601.96 240036
1604.84 236021
1607.71 232043
1610.58 226830
1613.45 221894
1616.32 215514
1619.19 193736
1622.06 203739
1624.93 202993
1627.8 201511
1630.67 205620
1633.54 208359
1636.42 201091
1639.29 189290
1642.16 216147
1645.03 219054
1647.9 207746
1650.77 198082
1653.64 204489
1656.51 176240
1659.38 227549
1662.25 235573
1665.12 229032
1668 234737
1670.87 229218
1673.74 221205
1676.61 229709
1679.48 226850
1682.35 235527
1685.22 222248
1688.09 203248
1690.96 237661
1693.83 236560
1696.7 231106
1699.58 203747
1702.45 203137
1705.32 216101
1708.19 229761
1711.06 237285
1713.93 238761
1716.8 227696
1719.67 210719
1722.54 221828
1725.41 240477
1728.28 239479
1731.16 236108
1734.03 225652
1736.9 203272
1739.77 223895
1742.64 225062
1745.51 231061
1748.38 231519
1751.25 226655
1754.12 221285
1756.99 234290
1759.86 231944
1762.74 234309
1765.61 227896
1768.48 235188
1771.35 223675
1774.22 217846
1777.09 218491
1779.96 231082
1782.83 229451
1785.7 228193
1788.57 226578
1791.44 226693
1794.32 216789
1797.19 216299
1800.06 223388
1802.93 220031
1805.8 220237
1808.67 222405
1811.54 219520
1814.41 215289
1817.28 214034
1820.15 207727
1823.02 201994
1825.9 198097
1828.77 191386
1831.64 191331
1834.51 188839
1837.38 192509
1840.25 189810
1843.12 185872
1845.99 179318
1848.86 175430
1851.73 181325
1854.6 180946
1857.48 179218
1860.35 177308
1863.22 175174
1866.09 172204
1868.96 168582
1871.83 163982
1874.7 166028
1877.57 167215
1880.44 165773
1883.31 163569
1886.18 161975
1889.06 159671
1891.93 156639
1894.8 154786
1897.67 153847
1900.54 152532
1903.41 151226
1906.28 149382
1909.15 147336
1912.02 145415
1914.89 143500
1917.76 140960
1920.64 137957
1923.51 136749
1926.38 135546
1929.25 133667
1932.12 131225
1934.99 128797
1937.86 126249
1940.73 123198
1943.6 120149
1946.47 116933
1949.34 115647
1952.21 113710
1955.09 111436
1957.96 109182
1960.83 106570
1963.7 103280
1966.57 100205
1969.44 98368.8
1972.31 96705.4
1975.18 95242.5
1978.05 93462.1
1980.92 91994.7
1983.79 93834.3
1986.67 96834.9
1989.54 98555.1
1992.41 99500.1
1995.28 100243
1998.15 101188
2001.02 101187
2003.89 100642
2006.76 99155
2009.63 96600.4
2012.5 94638.6
2015.37 94322.4
2018.25 93782.2
2021.12 93299.2
2023.99 93103.8
2026.86 92704.7
2029.73 92332.9
2032.6 92245.6
2035.47 92111.3
2038.34 92270.6
2041.21 94312
2044.08 96709.4
2046.95 98417.9
2049.83 100287
2052.7 102591
2055.57 108224
2058.44 111436
2061.31 113989
2064.18 115728
2067.05 116965
2069.92 118309
2072.79 120143
2075.66 121736
2078.53 123657
2081.41 125925
2084.28 128091
2087.15 130405
2090.02 132385
2092.89 133078
2095.76 133074
2098.63 131803
2101.5 131206
2104.37 131561
2107.24 132335
2110.11 132951
2112.99 133769
2115.86 134626
2118.73 135671
2121.6 135590
2124.47 134819
2127.34 133128
2130.21 130366
2133.08 126681
2135.95 121877
2138.82 115898
2141.69 111544
2144.57 108098
2147.44 104719
2150.31 101381
2153.18 98521.2
2156.05 95522.5
2158.92 91376.5
2161.79 86217.3
2164.66 84055.5
2167.53 86698.8
2170.4 89310.2
2173.27 91686.3
2176.15 93207
2179.02 93556.4
2181.89 93944.9
2184.76 94327.5
2187.63 94561
2190.5 95935.3
2193.37 97494.6
2196.24 98940.7
2199.11 100201
2201.98 101106
2204.85 102380
2207.73 103224
2210.6 104553
2213.47 105089
2216.34 105902
2219.21 107037
2222.08 108265
2224.95 109234
2227.82 110096
2230.69 111293
2233.56 112408
2236.43 113874
2239.31 115666
2242.18 117010
2245.05 118720
2247.92 120329
2250.79 121955
2253.66 123384
2256.53 124481
2259.4 125647
2262.27 127959
2265.14 130093
2268.01 131946
2270.89 134257
2273.76 136865
2276.63 139766
2279.5 143066
2282.37 146661
2285.24 150967
2288.11 156237
2290.98 162168
2293.85 168248
2296.72 173628
2299.59 178316
2302.47 182220
2305.34 185749
2308.21 188728
2311.08 191376
2313.95 193123
2316.82 194642
2319.69 196358
2322.56 198189
2325.43 201038
2328.3 207966
2331.17 214033
2334.05 211716
2336.92 208532
2339.79 206629
2342.66 206009
2345.53 207836
2348.4 213415
2351.27 221816
2354.14 224759
2357.01 209986
2359.88 195139
2362.75 185268
2365.63 180830
2368.5 180024
2371.37 182410
2374.24 187544
2377.11 194325
2379.98 200617
2382.85 205238
2385.72 207053
2388.59 206243
2391.46 204117
2394.33 201210
2397.21 198013
2400.08 195151
2402.95 192109
2405.82 189383
2408.69 186500
2411.56 183857
2414.43 181820
2417.3 180120
2420.17 178585
2423.04 176686
2425.91 175221
2428.79 173656
2431.66 172022
2434.53 170815
2437.4 169690
2440.27 168708
2443.14 167661
2446.01 166766
2448.88 166180
2451.75 165559
2454.62 165396
2457.49 165605
2460.36 165499
2463.24 165376
2466.11 165027
2468.98 164600
2471.85 163742
2474.72 162935
2477.59 162000
2480.46 161076
2483.33 160374
2486.2 159457
2489.07 158681
2491.95 158237
2494.82 157615
2497.69 157077
2500.56 156446
2503.43 155748
2506.3 155317
2509.17 154663
2512.04 154229
2514.91 153879
2517.78 153299
2520.65 153061
2523.53 152364
2526.4 151914
2529.27 151314
2532.14 151059
2535.01 150629
2537.88 150591
2540.75 150258
2543.62 150270
2546.49 150131
2549.36 149868
2552.23 149918
2555.1 150019
2557.98 150174
2560.85 150277
2563.72 150552
2566.59 151074
2569.46 151428
2572.33 151741
2575.2 152262
2578.07 152616
2580.94 153308
2583.81 154380
2586.68 155139
2589.56 156180
2592.43 157094
2595.3 158325
2598.17 159956
2601.04 161342
2603.91 162728
2606.78 164227
2609.65 166204
2612.52 168029
2615.39 170206
2618.26 172354
2621.14 174908
2624.01 177529
2626.88 180139
2629.75 182934
2632.62 186099
2635.49 189403
2638.36 192862
2641.23 196120
2644.1 199872
2646.97 203823
2649.84 207685
2652.72 211611
2655.59 215318
2658.46 219074
2661.33 222597
2664.2 225554
2667.07 227937
2669.94 229232
2672.81 229209
2675.68 228837
2678.55 228068
2681.42 227437
2684.3 226456
2687.17 225776
2690.04 224915
2692.91 224325
2695.78 223528
2698.65 222960
2701.52 222418
2704.39 221596
2707.26 220833
2710.13 219961
2713 219347
2715.88 218502
2718.75 217788
2721.62 217035
2724.49 216488
2727.36 215702
2730.23 215122
2733.1 214492
2735.97 213787
2738.84 212980
2741.71 212369
2744.58 211627
2747.46 211009
2750.33 210520
2753.2 209767
2756.07 209075
2758.94 208378
2761.81 207706
2764.68 207078
2767.55 206401
2770.42 205608
2773.29 204945
2776.16 204394
2779.04 203716
2781.91 203507
2784.78 202589
2787.65 202125
2790.52 201282
2793.39 200521
2796.26 200029
2799.13 199406
2802 198849
2804.87 198304
2807.74 197620
2810.62 197070
2813.49 196035
2816.36 195591
2819.23 194926
2822.1 194335
2824.97 193758
2827.84 192972
2830.71 192422
2833.58 191867
2836.45 191050
2839.32 190196
2842.2 189579
2845.07 188783
2847.94 188077
2850.81 187099
2853.68 186222
2856.55 185352
2859.42 184311
2862.29 183648
2865.16 183162
2868.03 182929
2870.9 182337
2873.78 181600
2876.65 181002
2879.52 180326
2882.39 179902
2885.26 179342
2888.13 178868
2891 178168
2893.87 177275
2896.74 176709
2899.61 175954
2902.48 175195
2905.36 174623
2908.23 173860
2911.1 173118
2913.97 172174
2916.84 171320
2919.71 170365
2922.58 169505
2925.45 168555
2928.32 167368
2931.19 166650
2934.06 166325
2936.94 166024
2939.81 165733
2942.68 165119
2945.55 164848
2948.42 164408
2951.29 164104
2954.16 163701
2957.03 163089
2959.9 162549
2962.77 161794
2965.64 161217
2968.52 160624
2971.39 160252
2974.26 160086
2977.13 159936
2980 159722
2982.87 159574
2985.74 159195
2988.61 159028
2991.48 158603
2994.35 158109
2997.22 157621
3000.1 157262
3002.97 156974
3005.84 156517
3008.71 155845
3011.58 155263
3014.45 154482
3017.32 153762
3020.19 153184
3023.06 152967
3025.93 152608
3028.8 151901
3031.68 151257
3034.55 150833
3037.42 150147
3040.29 149558
3043.16 149260
3046.03 148590
3048.9 148190
3051.77 147713
3054.64 146930
3057.51 146489
3060.38 145860
3063.26 145300
3066.13 144847
3069 144141
3071.87 143661
3074.74 143124
3077.61 142815
3080.48 142073
3083.35 141314
3086.22 140830
3089.09 140219
3091.96 139840
3094.83 139238
3097.71 138531
3100.58 138051
3103.45 137082
3106.32 136334
3109.19 135886
3112.06 135270
3114.93 134835
3117.8 134607
3120.67 133899
3123.54 133745
3126.41 133498
3129.29 133128
3132.16 132483
3135.03 131910
3137.9 131250
3140.77 130879
3143.64 130300
3146.51 129894
3149.38 129270
3152.25 128658
3155.12 128013
3157.99 127596
3160.87 127169
3163.74 126739
3166.61 126129
3169.48 125316
3172.35 124907
3175.22 124230
3178.09 123758
3180.96 123012
3183.83 122437
3186.7 121994
3189.57 121450
3192.45 120883
3195.32 120382
3198.19 120144
3201.06 119599
3203.93 118840
3206.8 118454
3209.67 118060
3212.54 117699
3215.41 116974
3218.28 116621
3221.15 116239
3224.03 115983
3226.9 115541
3229.77 115257
3232.64 114798
3235.51 114435
3238.38 114017
3241.25 113722
3244.12 113516
3246.99 113241
3249.86 112873
3252.73 112415
3255.61 112549
3258.48 112152
3261.35 111716
3264.22 111516
3267.09 111478
3269.96 111207
3272.83 110883
3275.7 110460
3278.57 110262
3281.44 110134
3284.31 109744
3287.19 109471
3290.06 108981
3292.93 108719
3295.8 108268
3298.67 107596
3301.54 107447
3304.41 107069
3307.28 106901
3310.15 106351
3313.02 105764
3315.89 105459
3318.77 105117
3321.64 104660
3324.51 104091
3327.38 103646
3330.25 103227
3333.12 102518
3335.99 102100
3338.86 101816
3341.73 101147
3344.6 100507
3347.47 100212
3350.35 99748.6
3353.22 99148.6
3356.09 98462.8
3358.96 98124.3
3361.83 97456.8
3364.7 96833.6
3367.57 96220.8
3370.44 95413.7
3373.31 94718.6
3376.18 94346.7
3379.05 94144.3
3381.93 93668.9
3384.8 92967.8
3387.67 92311.6
3390.54 91726
3393.41 91002.2
3396.28 90414.7
3399.15 89635.4
3402.02 89278.1
3404.89 88687
3407.76 88114.9
3410.63 87716.5
3413.51 87127.4
3416.38 86398.8
3419.25 85967.5
3422.12 85371.9
3424.99 84648.8
3427.86 83845
3430.73 83647.6
3433.6 83041.9
3436.47 82476.9
3439.34 82068.4
3442.21 81449.1
3445.09 81002.6
3447.96 80435.3
3450.83 79876.6
3453.7 78903.6
3456.57 78863
3459.44 78528.5
3462.31 78182.2
3465.18 77596.6
3468.05 76905.5
3470.92 76415
3473.79 75957.4
3476.67 75772.4
3479.54 75417.1
3482.41 74610
3485.28 74314.3
3488.15 73680.6
3491.02 73400.9
3493.89 73025.1
3496.76 72608.1
3499.63 72353.4
3502.5 71751.1
3505.37 71527.5
3508.25 70788.9
3511.12 70252.6
3513.99 70547.8
3516.86 70039.6
3519.73 69997
3522.6 69826.8
3525.47 69607.6
3528.34 69049.2
3531.21 68398
3534.08 68336
3536.95 68397.1
3539.83 68898
3542.7 68459.7
3545.57 68292.4
3548.44 68381.8
3551.31 67366
3554.18 67240.4
3557.05 67835.2
3559.92 67532.8
3562.79 68095.4
3565.66 67787.3
3568.53 67617.6
3571.41 66815.4
3574.28 64334.7
3577.15 67290.3
3580.02 68775
3582.89 68631.2
3585.76 68507.5
3588.63 68701.3
3591.5 68074.4
3594.37 65189.5
3597.24 67947.6
3600.11 68955.1
3602.98 68998.9
3605.86 69786.5
3608.73 70227.6
3611.6 70900.4
3614.47 68638.6
3617.34 68245.3
3620.21 68956.3
3623.08 70987.2
3625.95 68344
3628.82 71486.3
3631.69 73525.9
3634.56 67715.6
3637.44 67852.4
3640.31 73966.5
3643.18 75274.5
3646.05 75448.4
3648.92 75363.1
3651.79 74707
3654.66 68101.1
3657.53 66404.5
3660.4 73986.6
3663.27 71982.9
3666.15 75645.5
3669.02 76275.3
3671.89 75962.5
3674.76 72567.8
3677.63 66839.5
3680.5 69335.3
3683.37 65093.6
3686.24 72786.5
3689.11 74540.8
3691.98 74665
3694.85 68282.5
3697.72 68525.2
3700.6 73802.7
3703.47 75234
3706.34 74756.2
3709.21 72380.8
3712.08 74474.2
3714.95 72852.2
3717.82 68325.8
3720.69 69876
3723.56 74253.4
3726.43 73379.9
3729.3 71866.7
3732.18 70996.4
3735.05 71453.1
3737.92 69962.6
3740.79 65886.7
3743.66 64289.1
3746.53 69587.1
3749.4 67767.1
3752.27 59743.6
3755.14 65386.6
3758.01 60919
3760.88 67362.4
3763.76 71967.7
3766.63 70720.2
3769.5 73270
3772.37 72367.7
3775.24 72016.5
3778.11 71375.4
3780.98 74477.4
3783.85 73989
3786.72 71710.6
3789.59 73356.9
3792.46 73018.4
3795.34 73802.5
3798.21 73901.5
3801.08 73071.6
3803.95 70189.1
3806.82 68386.3
3809.69 65013.1
3812.56 68949.7
3815.43 67521.6
3818.3 71931
3821.17 69484.9
3824.04 64660.7
3826.92 66110.6
3829.79 65200.7
3832.66 69704
3835.53 69635.5
3838.4 67891.9
3841.27 66920.8
3844.14 62713.8
3847.01 63342.2
3849.88 66522.6
3852.75 68039.7
3855.62 69090.5
3858.5 63074.7
3861.37 53631.8
3864.24 64573.5
3867.11 67109.9
3869.98 65259.1
3872.85 63984.5
3875.72 63446.8
3878.59 62212.9
3881.46 64862.9
3884.33 66730
3887.2 64001
3890.08 64679.5
3892.95 61906.6
3895.82 65080.6
3898.69 62727.4
3901.56 64979
3904.43 64825.2
3907.3 61398.1
3910.17 60029.7
3913.04 61844.2
3915.91 65048.1
3918.78 65268.2
3921.66 64571.9
3924.53 62448.2
3927.4 62749.6
3930.27 63340.9
3933.14 62774.6
3936.01 63148.1
3938.88 62128.9
3941.75 62414.3
3944.62 63026.5
3947.49 62548
3950.36 61389.9
3953.24 61694.3
3956.11 61016.1
3958.98 61261.1
3961.85 61462.2
3964.72 61145.9
3967.59 60902.5
3970.46 60505.8
3973.33 60537.6
3976.2 60229.9
3979.07 59957.4
3981.94 59575.5
3984.82 59480.2
3987.69 59275.9
3990.56 59247.7
3993.43 58994.5
3996.3 58686.3
3999.17 58216.4
4002.04 57924.2
4004.91 57932.6
4007.78 57444.1
4010.65 57470.6
4013.52 57197.7
4016.4 56821.4
4019.27 56650.8
4022.14 56485.9
4025.01 56172.1
4027.88 55970.1
4030.75 55680.7
4033.62 55381.4
4036.49 55333.3
4039.36 55187.5
4042.23 54874.4
4045.1 54690.9
4047.98 54639.9
4050.85 54262.3
4053.72 54106.5
4056.59 53959.2
4059.46 53907.2
4062.33 53593.1
4065.2 53403
4068.07 53228.2
4070.94 53208.7
4073.81 52943.2
4076.68 52764.4
4079.56 52441.1
4082.43 52406.9
4085.3 52171.7
4088.17 51871.1
4091.04 51712.7
4093.91 51761.1
4096.78 51494.8
4099.65 51368.9
4102.52 51290.2
4105.39 51169.8
4108.26 50938.8
4111.14 50812.2
4114.01 50630.4
4116.88 50555.4
4119.75 50533.5
4122.62 50263.6
4125.49 50068.4
4128.36 50045.8
4131.23 49858.8
4134.1 49732.4
4136.97 49597.2
4139.84 49506.6
4142.72 49480.6
4145.59 49480
4148.46 49281.5
4151.33 49131.9
4154.2 48932.3
4157.07 48838.4
4159.94 48760.3
4162.81 48504.7
4165.68 48521.2
4168.55 48491.1
4171.42 48385.7
4174.3 48196.3
4177.17 48282.2
4180.04 48284.4
4182.91 47976.8
4185.78 47952.6
4188.65 47758.1
4191.52 47731.7
4194.39 47799.2
4197.26 47921.9
4200.13 47730.5
4203 47639.4
4205.87 47530.7
4208.75 47418.6
4211.62 47403.4
4214.49 47293.7
4217.36 47161.6
4220.23 47109.2
4223.1 47041
4225.97 47076.3
4228.84 47115.3
4231.71 47032
4234.58 46973
4237.45 46925.8
4240.33 46947.1
4243.2 46845.6
4246.07 46895
4248.94 46835.5
4251.81 46796.4
4254.68 46838.1
4257.55 46835.5
4260.42 46753.1
4263.29 46670.3
4266.16 46484.5
4269.03 46624.6
4271.91 46616
4274.78 46574.6
4277.65 46640.2
4280.52 46560.8
4283.39 46516.4
4286.26 46501.9
4289.13 46371.8
4292 46434.2
4294.87 46281.3
4297.74 46447.8
4300.61 46238.3
4303.49 46421.8
4306.36 46409.5
4309.23 46433.3
4312.1 46336.4
4314.97 46127.9
4317.84 46206
4320.71 46050.7
4323.58 46115.9
4326.45 46138.6
4329.32 46317.2
4332.19 46296.9
4335.07 46217.6
4337.94 46071.5
4340.81 46079
4343.68 46022.5
4346.55 45932.1
4349.42 45923.9
4352.29 46025.8
4355.16 46005
4358.03 46079.8
4360.9 45950.7
4363.77 45896.5
4366.65 45718.9
4369.52 45587
4372.39 45669.1
4375.26 45792.2
4378.13 45575.4
4381 45664.7
4383.87 45596.9
4386.74 45491.4
4389.61 45498.6
4392.48 45408
4395.35 45224.4
4398.23 45286.1
4401.1 45359.1
4403.97 45078.5
4406.84 45093.5
4409.71 45029.2
4412.58 45020.6
4415.45 44940.6
4418.32 44940.5
4421.19 44797.2
4424.06 44716.3
4426.93 44557.3
4429.81 44692.9
4432.68 44498.7
4435.55 44401.1
4438.42 44301.4
4441.29 44230.2
4444.16 44139.4
4447.03 43972.3
4449.9 43862.1
4452.77 43669.7
4455.64 43741
4458.51 43557.4
4461.39 43338.5
4464.26 43282.5
4467.13 43036.7
4470 42944.3
4472.87 42755.2
4475.74 42589.8
4478.61 42492
4481.48 42385
4484.35 42396.3
4487.22 42144.2
4490.09 41951.7
4492.97 41867.9
4495.84 41561.9
4498.71 41484.5
4501.58 41390.6
4504.45 41066.7
4507.32 40753.8
4510.19 40794.2
4513.06 40514.1
4515.93 40348.2
4518.8 40085.2
4521.67 39904.6
4524.55 39692.8
4527.42 39306.7
4530.29 39096.8
4533.16 38999
4536.03 38809.6
4538.9 38548.6
4541.77 38386.9
4544.64 38010.6
4547.51 37708.7
4550.38 37507.8
4553.25 37203.1
4556.13 37040.2
4559 36717.3
4561.87 36479.2
4564.74 36353.6
4567.61 35981.2
4570.48 35538.8
4573.35 35305
4576.22 34976.2
4579.09 34794.1
4581.96 34379.9
4584.83 34183.6
4587.71 33841.2
4590.58 33599.8
4593.45 33217.6
4596.32 32919.8
4599.19 32719.9
4602.06 32275.1
4604.93 31862.5
4607.8 31787.2
4610.67 31373.7
4613.54 30911.4
4616.41 30701.9
4619.29 30348.2
4622.16 29982.3
4625.03 29686.2
4627.9 29298.1
4630.77 28887.9
4633.64 28642.8
4636.51 28245.7
4639.38 27951.9
4642.25 27648.3
4645.12 27329.1
4647.99 26852.8
4650.87 26648.5
4653.74 26352
4656.61 25905.2
4659.48 25616
4662.35 25000.9
4665.22 24820.6
4668.09 24542.1
4670.96 24064.7
4673.83 23784.2
4676.7 23352.5
4679.57 23159.2
4682.45 22768.6
4685.32 22428.2
4688.19 22111.7
4691.06 21796.4
4693.93 21432.9
4696.8 21141.8
4699.67 20875.3
4702.54 20461.7
4705.41 20060.8
4708.28 19590.3
4711.15 19194.8
4714.03 18945.9
4716.9 18669.8
4719.77 18297.8
4722.64 18226.2
4725.51 17880.6
4728.38 17508.7
4731.25 17105.6
4734.12 16846.8
4736.99 16620.8
4739.86 16103.4
4742.73 15862.7
4745.6 15431.4
4748.48 15204
4751.35 15036.2
4754.22 14794.8
4757.09 14414.1
4759.96 14039.6
4762.83 13741.9
4765.7 13564.6
4768.57 13217.5
4771.44 12868.2
4774.31 12714
4777.18 12300.5
4780.06 11951.1
4782.93 11835.7
4785.8 11460.8
4788.67 11369.8
4791.54 11146.1
4794.41 10680
4797.28 10424.9
4800.15 10177.6
4803.02 9989.97
4805.89 9832.63
4808.76 9491.97
4811.64 9157.81
4814.51 8929.06
4817.38 8745.46
4820.25 8621.37
4823.12 8442.68
4825.99 8127.05
4828.86 7924.1
4831.73 7648.08
4834.6 7551.8
4837.47 7256.43
4840.34 7044.91
4843.22 6976.51
4846.09 6852.82
4848.96 6579.77
4851.83 6480.18
4854.7 6329.91
4857.57 6115.44
4860.44 5914.76
4863.31 5591.95
4866.18 5508.64
4869.05 5332.45
4871.92 5132.29
4874.8 5050.64
4877.67 4841.54
4880.54 4852.11
4883.41 4738.75
4886.28 4528.65
4889.15 4424.01
4892.02 4372.55
4894.89 4253.82
4897.76 4031.42
4900.63 3916.52
4903.5 3807.54
4906.38 3651.15
4909.25 3562.43
4912.12 3381.31
4914.99 3422.54
4917.86 3194.85
4920.73 3012.03
4923.6 3058.3
4926.47 3084.38
4929.34 2893.54
4932.21 2900.91
4935.08 2734.78
4937.96 2565.26
4940.83 2569.04
4943.7 2568.51
4946.57 2483.98
4949.44 2351.88
4952.31 2236.78
4955.18 2212.98
4958.05 2181.14
4960.92 2094.42
4963.79 1813.17
4966.67 1809.56
4969.54 1793.86
4972.41 1749.49
4975.28 1734.6
4978.15 1742.15
4981.02 1583.83
4983.89 1588.04
4986.76 1507.27
4989.63 1465.08
4992.5 1338.03
4995.37 1374.04
4998.24 1353.47
5001.12 1304.36
5003.99 1179.6
5006.86 1202.68
5009.73 1237.33
5012.6 1176.04
5015.47 1059.19
5018.34 966.424
5021.21 1003.29
5024.08 995.22
5026.95 978.364
5029.82 862.35
5032.7 761.932
5035.57 859.804
5038.44 829.87
5041.31 780.402
5044.18 606.169
5047.05 674.919
5049.92 573.933
5052.79 550.12
5055.66 704.969
5058.53 564.236
5061.4 679.262
5064.28 600.866
5067.15 451.211
5070.02 474.939
5072.89 609.819
5075.76 562.45
5078.63 626.247
5081.5 481.656
5084.37 394.341
5087.24 385.209
5090.11 418.191
5092.98 467.823
5095.86 352.32
5098.73 400.571
5101.6 466.525
5104.47 442.871
5107.34 369.101
5110.21 354.166
5113.08 408.887
5115.95 479.519
5118.82 404.802
5121.69 289.176
5124.56 441.762
5127.44 346.475
5130.31 323.651
5133.18 355.528
5136.05 423.291
5138.92 481.84
5141.79 486.972
5144.66 350.38
5147.53 360.371
5150.4 350.241
5153.27 435.182
5156.14 371.693
5159.02 293.499
5161.89 445.559
5164.76 556.726
5167.63 450.302
5170.5 380.732
5173.37 448.604
5176.24 498.464
5179.11 469.05
5181.98 374.669
5184.85 349.091
5187.72 435.311
5190.6 528.588
5193.47 478.768
5196.34 433.692
5199.21 400.909
5202.08 528.581
5204.95 555.919
5207.82 539.372
5210.69 297.31
5213.56 363.627
5216.43 531.523
5219.3 534.477
5222.18 531.176
5225.05 647.946
5227.92 552.501
5230.79 547.312
5233.66 481.027
5236.53 427.498
5239.4 450.586
5242.27 426.863
5245.14 494.103
5248.01 618.959
5250.88 625.674
5253.75 670.833
5256.63 607.952
5259.5 546.66
5262.37 543.492
5265.24 482.544
5268.11 525.992
5270.98 524.481
5273.85 531.074
5276.72 615.233
5279.59 533.758
5282.46 600.532
5285.33 738.756
5288.21 638.988
5291.08 576.373
5293.95 551.716
5296.82 575.163
5299.69 563.684
5302.56 611.108
5305.43 720.278
5308.3 652.08
5311.17 614.623
5314.04 587.263
5316.92 613.073
5319.79 560.573
5322.66 596.139
5325.53 796.862
5328.4 621.252
5331.27 557.948
5334.14 686.332
5337.01 776.758
5339.88 697.022
5342.75 684.594
5345.62 546.488
5348.5 499.726
5351.37 605.511
5354.24 678.51
5357.11 712.44
5359.98 829.433
5362.85 747.516
5365.72 646.561
5368.59 621.341
5371.46 830.92
5374.33 734.295
5377.2 693.853
5380.07 755.678
5382.95 686.595
5385.82 620.187
5388.69 632.069
5391.56 644.798
5394.43 628.377
5397.3 623.814
5400.17 547.685
5403.04 640.331
5405.91 748.348
5408.78 697.876
5411.65 653.963
5414.53 597.225
5417.4 672.108
5420.27 564.247
5423.14 600.41
5426.01 617.732
5428.88 623.658
5431.75 583.281
5434.62 647.132
5437.49 626.332
5440.36 736.726
5443.23 630.432
5446.11 678.418
5448.98 552.142
5451.85 531.848
5454.72 561.603
5457.59 722.164
5460.46 624.856
5463.33 620.292
5466.2 583.326
5469.07 469.725
5471.94 549.357
5474.81 473.767
5477.69 519.165
5480.56 516.308
5483.43 546.637
5486.3 581.037
5489.17 611.09
5492.04 628.905
5494.91 706.931
5497.78 590.121
5500.65 545.957
5503.52 481.333
5506.4 528.574
5509.27 519.243
5512.14 490.85
5515.01 537.708
5517.88 557.527
5520.75 624.29
5523.62 626.366
5526.49 500.661
5529.36 485.9
5532.23 544.375
5535.1 499.139
5537.97 432.706
5540.85 596.911
5543.72 568.88
5546.59 562.731
5549.46 472.878
5552.33 479.123
5555.2 578.522
5558.07 508.516
5560.94 585.064
5563.81 433.751
5566.68 576.802
5569.55 519.754
5572.43 525.107
5575.3 615.262
5578.17 613.556
5581.04 577.099
5583.91 541.9
5586.78 538.616
5589.65 529.57
5592.52 508.216
5595.39 533.141
5598.26 586.642
5601.13 601.972
5604.01 620.83
5606.88 644.9
5609.75 635.348
5612.62 488.057
5615.49 444.962
5618.36 604.986
5621.23 627.578
5624.1 665.939
5626.97 516.401
5629.84 530.595
5632.71 589.073
5635.59 604.75
5638.46 474.706
5641.33 547.298
5644.2 491.614
5647.07 577.175
5649.94 528.457
5652.81 441.024
5655.68 508.941
5658.55 633.856
5661.42 548.907
5664.29 448.459
5667.17 537.504
5670.04 527.345
5672.91 575.722
5675.78 430.914
5678.65 423.22
5681.52 555.986
5684.39 504.736
5687.26 555.319
5690.13 515.154
5693 516.931
5695.87 554.667
5698.75 451.753
5701.62 548.849
5704.49 474.593
5707.36 523.417
5710.23 576.571
5713.1 516.535
5715.97 456.741
5718.84 342.381
5721.71 556.766
5724.58 538.873
5727.45 501.292
5730.33 602.808
5733.2 551.403
5736.07 588.56
5738.94 461.644
5741.81 507.875
5744.68 517.731
5747.55 419.261
5750.42 511.558
5753.29 453.662
5756.16 486.848
5759.03 482.171
5761.9 519.595
5764.78 577.988
5767.65 489.291
5770.52 498.591
5773.39 513.396
5776.26 455.924
5779.13 532.149
5782 549.591
5784.87 572.582
5787.74 535.942
5790.61 626.923
5793.48 413.9
5796.36 423.321
5799.23 546.136
5802.1 546.656
5804.97 472.126
5807.84 472.47
5810.71 517.009
5813.58 509.76
5816.45 497.168
5819.32 503.403
5822.19 406.784
5825.06 287.752
5827.94 426.615
5830.81 507.776
5833.68 477.252
5836.55 518.52
5839.42 543.625
5842.29 388.51
5845.16 454.025
5848.03 491.157
5850.9 487.108
5853.77 359.795
5856.65 428.713
5859.52 495.582
5862.39 486.077
5865.26 449.904
5868.13 515.268
5871 586.6
5873.87 567.221
5876.74 405.171
