scanname 扫描251
timestamp 1/1/1970 00:17
scancount 1
laserwavenum 850.5
measurementstate Unknown
scanmode Identification
snr 8.28753 8.28753 8.28753
replacelist 0
peaks 19
695.498 0.112553 0 1.26808 0.000375503
735.772 0.103849 0 1.33308 0.000230718
752.393 0.116801 0 4.09905 0.000408228
775.471 0.08462 0 2.98775 0.000244903
801.635 0.106386 0 8.73327 0.00047422
829.394 0.0962136 0 6.82338 0.00030886
846.712 0.104845 0 12.2156 0.000452224
907.962 0.092348 0 11.978 0.000305156
942.181 0.0789501 0 10.7753 0.000221714
979.778 0.0569434 0 1.32418 3.26416e-05
1036.68 0.0759513 0 3.69232 6.84501e-05
1157.5 0.0969414 0 7.94055 0.000223931
1191.73 0.0874471 0 2.82458 0.000103282
1342.11 0.2186 0 13.554 0.000417262
1403.14 0.0859356 0 3.23146 0.000100648
1468.61 0.123772 0 6.49812 0.00019739
1537.03 0.234549 0 7.77018 0.000301152
1597.31 0.0746098 0 6.05973 0.000174751
3084.5 0.074745 0 3.69814 0.000141688
finalresult No match found 1A12650	9.13308e-26
spectrum 2048
0 -7.42127
2.86447 -6.93511
5.72895 -5.29484
8.59342 -5.29732
11.4579 -3.61822
14.3224 0.675443
17.1868 -1.50551
20.0513 16.5353
22.9158 0.109711
25.7803 2.60138
28.6447 3.54663
31.5092 4.95521
34.3737 1.04154
37.2382 -0.0522715
40.1026 3.39424
42.9671 5.17301
45.8316 1.45703
48.696 7.0423
51.5605 0.658734
54.425 -0.291871
57.2895 10.2999
60.1539 3.16125
63.0184 4.72689
65.8829 -0.202161
68.7474 -1.09562
71.6118 -0.588107
74.4763 -1.18454
77.3408 -0.992198
80.2053 2.16648
83.0697 0.624757
85.9342 -0.371975
88.7987 2.82161
91.6632 5.73297
94.5276 1.52869
97.3921 2.93043
100.257 3.04006
103.121 3.66222
105.986 1.06825
108.85 4.66086
111.714 0.512002
114.579 -1.22408
117.443 -2.92532
120.308 -0.531188
123.172 0.64461
126.037 2.48626
128.901 0.645493
131.766 1.03199
134.63 0.859894
137.495 -2.20311
140.359 -3.46034
143.224 -2.63664
146.088 -1.31548
148.953 -1.98187
151.817 3.78826
154.682 4.92726
157.546 2.36235
160.411 0.341378
163.275 4.3469
166.139 0.705075
169.004 0.502924
171.868 1.97354
174.733 -1.07455
177.597 0.4726
180.462 2.84988
183.326 -0.635169
186.191 -0.265317
189.055 -0.86485
191.92 -1.55101
194.784 -0.975154
197.649 3.87145
200.513 -1.60364
203.378 -0.95134
206.242 -3.04179
209.107 2.96446
211.971 1.67968
214.836 -0.74607
217.7 -1.35328
220.564 1.20716
223.429 -0.0433362
226.293 0.940151
229.158 7.49474
232.022 2.03064
234.887 4.19677
237.751 -0.500939
240.616 0.76234
243.48 6.31031
246.345 2.49884
249.209 1.96391
252.074 1.31086
254.938 -0.914645
257.803 -1.41454
260.667 0.614603
263.532 2.00826
266.396 3.37946
269.26 -0.753852
272.125 -0.494215
274.989 1.84993
277.854 3.61066
280.718 2.04344
283.583 1.89462
286.447 2.44227
289.312 0.101721
292.176 -1.62146
295.041 -0.850663
297.905 0.872407
300.77 -0.444988
303.634 3.96784
306.499 0.687432
309.363 1.18287
312.228 4.78922
315.092 1.53447
317.957 7.03886
320.821 -0.597386
323.686 0.627169
326.55 -2.18449
329.414 -1.80431
332.279 1.66546
335.143 2.85027
338.008 0.724732
340.872 4.73473
343.737 1.7236
346.601 4.91427
349.466 0.709748
352.33 -0.441648
355.195 -0.122561
358.059 -0.0797027
360.924 1.86883
363.788 0.297076
366.653 0.922544
369.517 -1.38368
372.382 -0.38345
375.246 -1.19075
378.111 2.35579
380.975 12.2601
383.839 4.11334
386.704 -0.612756
389.568 0.484123
392.433 2.15397
395.297 3.40425
398.162 -0.962639
401.026 -1.39935
403.891 2.34385
406.755 9.92097
409.62 4.75009
412.484 3.43045
415.349 2.11157
418.213 0.275464
421.078 1.37395
423.942 -0.651584
426.807 0.770674
429.671 -1.72901
432.535 2.14575
435.4 3.01103
438.264 4.15935
441.129 1.00378
443.993 5.83707
446.858 1.36305
449.722 1.94629
452.587 12.5967
455.451 5.6614
458.316 0.596301
461.18 2.13273
464.045 3.6646
466.909 4.18563
469.774 -0.359577
472.638 -0.694359
475.503 1.48312
478.367 -0.0567701
481.232 0.806095
484.096 0.784857
486.961 4.72163
489.825 4.18048
492.689 7.40657
495.554 -0.65983
498.418 0.0252911
501.283 3.73926
504.147 4.02936
507.012 3.70772
509.876 0.960284
512.741 2.62811
515.605 5.46519
518.47 0.713739
521.334 2.95386
524.199 -1.22756
527.063 -1.53524
529.928 1.71035
532.792 2.67939
535.657 -1.47632
538.521 1.39146
541.385 2.56572
544.25 4.41689
547.115 2.1524
549.979 3.02217
552.843 1.57236
555.708 -0.665084
558.572 -2.79666
561.437 -2.27431
564.301 0.74065
567.166 4.53405
570.03 0.718599
572.895 1.72961
575.759 -2.73109
578.624 1.70209
581.488 6.69403
584.353 0.0495923
587.217 2.93452
590.082 0.547942
592.946 0.723722
595.81 0.693223
598.675 -1.25183
601.539 0.652593
604.404 -0.325138
607.268 0.544783
610.133 0.334552
612.997 -0.243349
615.862 0.333194
618.726 0.594425
621.591 0.295376
624.455 0.300859
627.32 0.050812
630.184 0.972964
633.049 0.667669
635.913 0.712809
638.778 1.03794
641.642 1.01772
644.507 1.05338
647.371 0.942885
650.235 0.81799
653.1 0.564192
655.964 0.348965
658.829 0.418366
661.693 0.707171
664.558 0.701155
667.422 0.355141
670.287 0.653368
673.151 0.669018
676.016 0.781608
678.88 0.773331
681.745 0.838262
684.609 0.724676
687.474 0.841684
690.338 0.915746
693.203 1.0842
696.067 1.32078
698.932 1.23804
701.796 0.74475
704.66 0.694121
707.525 0.697806
710.389 0.608012
713.254 0.722705
716.118 0.634812
718.983 0.597025
721.847 0.676394
724.712 0.755351
727.576 0.755574
730.441 0.857746
733.305 0.995939
736.17 1.27509
739.034 1.07928
741.899 0.860471
744.763 0.822685
747.628 0.939978
750.492 1.03051
753.357 1.28127
756.221 1.37607
759.086 0.931317
761.95 0.643051
764.814 0.573735
767.679 0.602195
770.543 0.754169
773.408 1.0343
776.272 1.00236
779.137 0.646068
782.001 0.589356
784.866 0.611483
787.73 0.576797
790.595 0.583954
793.459 0.684342
796.324 0.772872
799.188 0.932999
802.053 1.23271
804.917 1.3625
807.782 0.649707
810.646 0.489642
813.51 0.513376
816.375 0.553925
819.239 0.592435
822.104 0.672236
824.968 0.779796
827.833 0.951728
830.697 1.22201
833.562 0.972758
836.426 0.66108
839.291 0.657821
842.155 0.778031
845.02 1.15206
847.884 1.40872
850.749 0.932209
853.613 0.573847
856.478 0.503147
859.342 0.476606
862.207 0.463836
865.071 0.480426
867.935 0.498415
870.8 0.508166
873.664 0.525693
876.529 0.525054
879.393 0.539763
882.258 0.55879
885.122 0.586692
887.987 0.587971
890.851 0.619859
893.716 0.607742
896.58 0.620477
899.445 0.665247
902.309 0.713043
905.174 0.802303
908.038 0.945036
910.903 1.10203
913.767 0.854834
916.632 0.582271
919.496 0.516844
922.36 0.516943
925.225 0.538384
928.089 0.549471
930.954 0.558882
933.818 0.607189
936.683 0.654624
939.547 0.737028
942.412 0.833098
945.276 0.862088
948.141 0.704969
951.005 0.545902
953.87 0.504225
956.734 0.504429
959.599 0.507592
962.463 0.499961
965.328 0.508973
968.192 0.523626
971.057 0.536385
973.921 0.542594
976.785 0.565312
979.65 0.60207
982.514 0.567488
985.379 0.540159
988.243 0.550461
991.108 0.551754
993.972 0.564896
996.837 0.57041
999.701 0.577609
1002.57 0.581182
1005.43 0.593639
1008.29 0.592187
1011.16 0.595189
1014.02 0.598644
1016.89 0.612275
1019.75 0.626284
1022.62 0.644639
1025.48 0.680211
1028.35 0.70302
1031.21 0.735551
1034.07 0.756868
1036.94 0.762383
1039.8 0.754957
1042.67 0.734423
1045.53 0.705291
1048.4 0.663979
1051.26 0.644595
1054.13 0.637275
1056.99 0.628994
1059.86 0.625765
1062.72 0.628047
1065.58 0.622995
1068.45 0.618405
1071.31 0.62102
1074.18 0.619379
1077.04 0.63103
1079.91 0.63448
1082.77 0.634715
1085.64 0.6532
1088.5 0.6586
1091.36 0.646493
1094.23 0.658391
1097.09 0.657584
1099.96 0.673817
1102.82 0.676697
1105.69 0.666496
1108.55 0.657954
1111.42 0.665271
1114.28 0.672299
1117.14 0.695173
1120.01 0.708185
1122.87 0.686261
1125.74 0.703219
1128.6 0.737227
1131.47 0.751801
1134.33 0.778957
1137.2 0.758827
1140.06 0.738586
1142.92 0.732298
1145.79 0.741526
1148.65 0.760156
1151.52 0.804653
1154.38 0.86955
1157.25 0.95647
1160.11 1.12143
1162.98 0.968562
1165.84 0.714274
1168.71 0.679431
1171.57 0.68533
1174.43 0.708025
1177.3 0.722828
1180.16 0.766865
1183.03 0.777656
1185.89 0.808106
1188.76 0.849332
1191.62 0.873747
1194.49 0.898326
1197.35 0.8856
1200.21 0.763784
1203.08 0.735958
1205.94 0.748783
1208.81 0.745948
1211.67 0.742713
1214.54 0.743901
1217.4 0.763107
1220.27 0.810214
1223.13 0.799247
1225.99 0.823625
1228.86 0.817111
1231.72 0.830591
1234.59 0.840725
1237.45 0.844109
1240.32 0.868093
1243.18 0.856653
1246.05 0.889328
1248.91 0.917007
1251.78 0.943215
1254.64 0.905738
1257.5 0.916873
1260.37 0.936721
1263.23 0.937536
1266.1 0.978009
1268.96 0.965556
1271.83 0.979641
1274.69 1.00899
1277.56 1.0448
1280.42 1.07465
1283.28 1.08981
1286.15 1.11822
1289.01 1.15707
1291.88 1.18727
1294.74 1.20021
1297.61 1.21868
1300.47 1.2584
1303.34 1.30793
1306.2 1.34511
1309.06 1.37782
1311.93 1.42844
1314.79 1.47377
1317.66 1.54469
1320.52 1.6157
1323.39 1.65422
1326.25 1.6964
1329.12 1.73907
1331.98 1.80042
1334.84 1.92215
1337.71 2.04237
1340.57 2.17113
1343.44 2.24837
1346.3 2.19451
1349.17 1.92851
1352.03 1.68241
1354.9 1.55462
1357.76 1.39748
1360.62 1.25077
1363.49 1.09882
1366.35 1.02659
1369.22 0.988164
1372.08 0.965223
1374.95 0.880645
1377.81 0.827007
1380.68 0.806891
1383.54 0.835868
1386.41 0.878707
1389.27 0.875261
1392.13 0.81452
1395 0.794252
1397.86 0.811211
1400.73 0.849281
1403.59 0.895127
1406.46 0.87223
1409.32 0.809379
1412.19 0.73778
1415.05 0.701949
1417.91 0.665052
1420.78 0.659734
1423.64 0.693823
1426.51 0.726995
1429.37 0.743984
1432.24 0.795503
1435.1 0.793581
1437.97 0.787903
1440.83 0.815076
1443.69 0.823137
1446.56 0.849468
1449.42 0.878185
1452.29 0.92655
1455.15 0.934974
1458.02 0.988103
1460.88 1.07033
1463.75 1.1291
1466.61 1.22174
1469.47 1.34153
1472.34 1.27165
1475.2 1.08167
1478.07 1.05255
1480.93 1.05897
1483.8 1.11525
1486.66 1.1776
1489.53 1.20341
1492.39 1.28612
1495.26 1.33128
1498.12 1.37452
1500.98 1.42992
1503.85 1.48659
1506.71 1.49908
1509.58 1.63068
1512.44 1.71516
1515.31 1.78975
1518.17 1.87253
1521.04 1.88531
1523.9 1.9923
1526.76 2.05713
1529.63 2.18155
1532.49 2.19183
1535.36 2.37101
1538.22 2.35426
1541.09 2.31255
1543.95 2.21592
1546.82 2.04557
1549.68 1.85155
1552.54 1.69314
1555.41 1.53787
1558.27 1.27247
1561.14 1.20481
1564 1.11735
1566.87 1.00704
1569.73 0.814416
1572.6 0.681156
1575.46 0.537355
1578.33 0.486869
1581.19 0.485046
1584.05 0.504794
1586.92 0.564766
1589.78 0.639084
1592.65 0.73037
1595.51 0.736431
1598.38 0.678226
1601.24 0.694384
1604.11 0.757313
1606.97 0.60526
1609.83 0.427048
1612.7 0.35399
1615.56 0.314611
1618.43 0.283696
1621.29 0.284161
1624.16 0.293728
1627.02 0.280493
1629.89 0.287684
1632.75 0.298272
1635.61 0.316182
1638.48 0.314565
1641.34 0.304173
1644.21 0.311852
1647.07 0.304319
1649.94 0.28937
1652.8 0.29369
1655.67 0.286563
1658.53 0.298118
1661.39 0.302369
1664.26 0.299422
1667.12 0.304688
1669.99 0.30354
1672.85 0.304299
1675.72 0.294568
1678.58 0.305221
1681.45 0.30365
1684.31 0.292969
1687.18 0.321283
1690.04 0.314538
1692.9 0.316469
1695.77 0.314515
1698.63 0.322373
1701.5 0.346441
1704.36 0.3302
1707.23 0.333332
1710.09 0.305312
1712.96 0.307252
1715.82 0.323959
1718.68 0.304037
1721.55 0.303461
1724.41 0.320032
1727.28 0.320943
1730.14 0.316804
1733.01 0.31515
1735.87 0.318446
1738.74 0.313216
1741.6 0.313336
1744.46 0.33582
1747.33 0.319888
1750.19 0.306964
1753.06 0.312096
1755.92 0.32386
1758.79 0.322095
1761.65 0.326823
1764.52 0.320488
1767.38 0.318778
1770.24 0.332273
1773.11 0.311326
1775.97 0.323611
1778.84 0.303558
1781.7 0.321515
1784.57 0.320101
1787.43 0.333107
1790.3 0.32646
1793.16 0.312445
1796.02 0.33318
1798.89 0.332244
1801.75 0.327195
1804.62 0.343308
1807.48 0.314604
1810.35 0.318289
1813.21 0.310355
1816.08 0.302529
1818.94 0.312825
1821.81 0.338573
1824.67 0.322915
1827.53 0.314687
1830.4 0.315428
1833.26 0.317552
1836.13 0.324918
1838.99 0.3227
1841.86 0.313925
1844.72 0.302556
1847.59 0.311374
1850.45 0.328342
1853.31 0.318405
1856.18 0.300374
1859.04 0.306433
1861.91 0.316822
1864.77 0.325424
1867.64 0.336901
1870.5 0.310595
1873.37 0.321275
1876.23 0.318438
1879.09 0.316224
1881.96 0.305256
1884.82 0.283951
1887.69 0.306935
1890.55 0.288156
1893.42 0.300223
1896.28 0.299442
1899.15 0.298232
1902.01 0.307388
1904.87 0.303369
1907.74 0.306047
1910.6 0.322876
1913.47 0.306767
1916.33 0.278112
1919.2 0.303877
1922.06 0.299588
1924.93 0.296053
1927.79 0.292843
1930.66 0.305239
1933.52 0.312704
1936.38 0.304193
1939.25 0.293638
1942.11 0.293913
1944.98 0.295535
1947.84 0.299702
1950.71 0.281704
1953.57 0.299983
1956.44 0.307768
1959.3 0.283328
1962.16 0.272062
1965.03 0.229332
1967.89 0.253182
1970.76 0.241072
1973.62 0.206563
1976.49 0.242126
1979.35 0.260812
1982.22 0.28885
1985.08 0.268289
1987.94 0.268212
1990.81 0.261407
1993.67 0.259856
1996.54 0.274501
1999.4 0.274611
2002.27 0.289844
2005.13 0.280498
2008 0.276238
2010.86 0.244541
2013.72 0.248519
2016.59 0.207619
2019.45 0.237305
2022.32 0.23769
2025.18 0.259253
2028.05 0.280335
2030.91 0.316874
2033.78 0.2891
2036.64 0.248329
2039.51 0.2546
2042.37 0.272144
2045.23 0.238598
2048.1 0.225924
2050.96 0.288399
2053.83 0.307522
2056.69 0.329791
2059.56 0.304943
2062.42 0.307032
2065.29 0.288149
2068.15 0.311791
2071.01 0.312253
2073.88 0.323549
2076.74 0.329945
2079.61 0.35264
2082.47 0.336876
2085.34 0.338429
2088.2 0.333932
2091.07 0.315241
2093.93 0.311602
2096.79 0.338357
2099.66 0.325625
2102.52 0.319562
2105.39 0.316462
2108.25 0.317959
2111.12 0.346651
2113.98 0.364311
2116.85 0.351118
2119.71 0.339612
2122.58 0.351779
2125.44 0.33156
2128.3 0.318323
2131.17 0.337004
2134.03 0.335312
2136.9 0.324011
2139.76 0.317889
2142.63 0.286093
2145.49 0.31511
2148.36 0.319264
2151.22 0.289747
2154.08 0.29294
2156.95 0.279224
2159.81 0.278303
2162.68 0.294815
2165.54 0.265923
2168.41 0.278345
2171.27 0.303915
2174.14 0.333943
2177 0.315557
2179.86 0.275046
2182.73 0.327442
2185.59 0.327371
2188.46 0.319443
2191.32 0.323232
2194.19 0.353208
2197.05 0.327359
2199.92 0.322208
2202.78 0.329426
2205.64 0.348421
2208.51 0.332489
2211.37 0.350538
2214.24 0.337973
2217.1 0.329937
2219.97 0.326779
2222.83 0.325217
2225.7 0.345866
2228.56 0.315013
2231.43 0.336024
2234.29 0.372093
2237.15 0.354162
2240.02 0.358456
2242.88 0.374919
2245.75 0.356313
2248.61 0.36758
2251.48 0.375495
2254.34 0.365856
2257.21 0.418342
2260.07 0.418489
2262.93 0.3773
2265.8 0.399335
2268.66 0.399799
2271.53 0.393006
2274.39 0.379751
2277.26 0.400679
2280.12 0.409506
2282.99 0.41599
2285.85 0.427957
2288.71 0.425131
2291.58 0.432995
2294.44 0.440059
2297.31 0.45005
2300.17 0.436696
2303.04 0.462807
2305.9 0.468899
2308.77 0.449586
2311.63 0.451105
2314.49 0.465665
2317.36 0.460502
2320.22 0.493333
2323.09 0.485171
2325.95 0.494932
2328.82 0.477854
2331.68 0.469896
2334.55 0.476012
2337.41 0.469289
2340.28 0.470223
2343.14 0.46485
2346 0.475967
2348.87 0.48224
2351.73 0.502371
2354.6 0.489157
2357.46 0.486046
2360.33 0.478103
2363.19 0.486224
2366.06 0.491684
2368.92 0.483815
2371.78 0.454553
2374.65 0.464668
2377.51 0.473231
2380.38 0.466847
2383.24 0.451257
2386.11 0.465935
2388.97 0.473378
2391.84 0.458493
2394.7 0.457507
2397.56 0.455872
2400.43 0.457002
2403.29 0.469029
2406.16 0.448682
2409.02 0.46538
2411.89 0.468685
2414.75 0.463778
2417.62 0.44384
2420.48 0.456658
2423.34 0.456269
2426.21 0.458113
2429.07 0.449646
2431.94 0.464458
2434.8 0.462413
2437.67 0.466379
2440.53 0.471322
2443.4 0.484231
2446.26 0.456827
2449.12 0.436594
2451.99 0.461536
2454.85 0.476631
2457.72 0.493169
2460.58 0.488593
2463.45 0.47137
2466.31 0.463299
2469.18 0.478002
2472.04 0.481011
2474.91 0.483569
2477.77 0.460878
2480.63 0.48998
2483.5 0.477592
2486.36 0.482912
2489.23 0.472137
2492.09 0.471731
2494.96 0.46168
2497.82 0.477813
2500.69 0.46184
2503.55 0.460125
2506.41 0.464256
2509.28 0.473305
2512.14 0.478274
2515.01 0.462777
2517.87 0.472339
2520.74 0.487809
2523.6 0.476296
2526.47 0.473095
2529.33 0.479571
2532.19 0.4908
2535.06 0.46827
2537.92 0.468046
2540.79 0.468211
2543.65 0.475664
2546.52 0.482788
2549.38 0.477386
2552.25 0.477719
2555.11 0.474408
2557.98 0.486635
2560.84 0.481987
2563.7 0.493575
2566.57 0.491532
2569.43 0.485979
2572.3 0.478319
2575.16 0.471978
2578.03 0.485746
2580.89 0.500635
2583.76 0.497832
2586.62 0.494489
2589.48 0.501041
2592.35 0.499466
2595.21 0.514929
2598.08 0.490457
2600.94 0.504175
2603.81 0.511623
2606.67 0.515634
2609.54 0.522756
2612.4 0.525143
2615.26 0.525532
2618.13 0.534028
2620.99 0.504061
2623.86 0.509761
2626.72 0.525869
2629.59 0.521395
2632.45 0.526874
2635.32 0.511906
2638.18 0.521412
2641.04 0.527687
2643.91 0.533788
2646.77 0.529139
2649.64 0.528574
2652.5 0.524245
2655.37 0.532554
2658.23 0.542592
2661.1 0.546542
2663.96 0.551527
2666.82 0.548499
2669.69 0.557957
2672.55 0.54093
2675.42 0.539044
2678.28 0.541943
2681.15 0.544352
2684.01 0.548684
2686.88 0.549801
2689.74 0.561904
2692.61 0.550793
2695.47 0.553434
2698.33 0.556687
2701.2 0.557249
2704.06 0.555287
2706.93 0.557525
2709.79 0.554783
2712.66 0.554985
2715.52 0.565087
2718.39 0.563182
2721.25 0.550256
2724.11 0.537793
2726.98 0.53927
2729.84 0.544722
2732.71 0.539532
2735.57 0.540551
2738.44 0.552844
2741.3 0.558567
2744.17 0.551349
2747.03 0.545485
2749.89 0.562685
2752.76 0.548093
2755.62 0.533119
2758.49 0.540245
2761.35 0.538717
2764.22 0.541119
2767.08 0.529838
2769.95 0.545796
2772.81 0.539668
2775.68 0.547272
2778.54 0.545444
2781.4 0.547013
2784.27 0.526481
2787.13 0.542668
2790 0.551847
2792.86 0.556601
2795.73 0.541804
2798.59 0.555335
2801.46 0.547967
2804.32 0.544512
2807.18 0.550481
2810.05 0.539995
2812.91 0.560159
2815.78 0.56935
2818.64 0.552579
2821.51 0.564748
2824.37 0.553967
2827.24 0.556957
2830.1 0.550075
2832.96 0.567984
2835.83 0.570932
2838.69 0.579199
2841.56 0.574411
2844.42 0.568956
2847.29 0.577342
2850.15 0.570298
2853.02 0.562611
2855.88 0.569142
2858.74 0.582421
2861.61 0.592579
2864.47 0.57748
2867.34 0.584864
2870.2 0.584127
2873.07 0.603035
2875.93 0.610642
2878.8 0.627359
2881.66 0.625367
2884.53 0.627505
2887.39 0.622948
2890.25 0.620434
2893.12 0.623422
2895.98 0.623755
2898.85 0.625973
2901.71 0.620118
2904.58 0.613019
2907.44 0.607153
2910.31 0.586836
2913.17 0.593386
2916.03 0.594236
2918.9 0.580029
2921.76 0.585139
2924.63 0.582378
2927.49 0.567313
2930.36 0.565867
2933.22 0.567575
2936.09 0.569303
2938.95 0.584397
2941.81 0.578023
2944.68 0.576656
2947.54 0.566802
2950.41 0.555045
2953.27 0.569883
2956.14 0.56693
2959 0.556289
2961.87 0.54597
2964.73 0.550449
2967.59 0.558771
2970.46 0.548083
2973.32 0.54832
2976.19 0.558069
2979.05 0.544247
2981.92 0.561957
2984.78 0.554595
2987.65 0.556858
2990.51 0.542725
2993.38 0.5545
2996.24 0.557709
2999.1 0.547508
3001.97 0.550671
3004.83 0.553323
3007.7 0.558448
3010.56 0.548774
3013.43 0.56039
3016.29 0.564417
3019.16 0.566826
3022.02 0.556251
3024.88 0.56005
3027.75 0.560541
3030.61 0.563462
3033.48 0.563508
3036.34 0.56506
3039.21 0.572581
3042.07 0.595297
3044.94 0.59118
3047.8 0.610868
3050.66 0.60824
3053.53 0.599511
3056.39 0.615057
3059.26 0.604863
3062.12 0.589567
3064.99 0.598475
3067.85 0.618052
3070.72 0.601876
3073.58 0.609617
3076.44 0.634444
3079.31 0.656525
3082.17 0.732282
3085.04 0.806442
3087.9 0.754745
3090.77 0.675632
3093.63 0.596037
3096.5 0.556871
3099.36 0.549868
3102.23 0.544483
3105.09 0.53612
3107.95 0.535365
3110.82 0.542188
3113.68 0.526006
3116.55 0.540386
3119.41 0.554298
3122.28 0.534742
3125.14 0.542233
3128.01 0.544828
3130.87 0.558366
3133.73 0.551057
3136.6 0.556531
3139.46 0.549999
3142.33 0.559623
3145.19 0.538928
3148.06 0.541461
3150.92 0.548043
3153.79 0.541843
3156.65 0.53184
3159.51 0.547218
3162.38 0.558436
3165.24 0.539547
3168.11 0.558864
3170.97 0.543571
3173.84 0.538852
3176.7 0.535215
3179.57 0.562863
3182.43 0.564584
3185.29 0.555384
3188.16 0.5344
3191.02 0.543097
3193.89 0.57225
3196.75 0.565971
3199.62 0.564087
3202.48 0.547339
3205.35 0.555019
3208.21 0.58685
3211.07 0.566055
3213.94 0.56707
3216.8 0.536786
3219.67 0.528626
3222.53 0.545847
3225.4 0.554749
3228.26 0.551231
3231.13 0.551974
3233.99 0.561881
3236.86 0.546048
3239.72 0.564343
3242.58 0.549889
3245.45 0.562016
3248.31 0.571524
3251.18 0.536109
3254.04 0.526049
3256.91 0.54024
3259.77 0.548899
3262.64 0.555394
3265.5 0.556347
3268.36 0.560607
3271.23 0.55083
3274.09 0.563149
3276.96 0.569094
3279.82 0.558688
3282.69 0.535268
3285.55 0.549386
3288.42 0.54672
3291.28 0.563774
3294.14 0.5614
3297.01 0.556315
3299.87 0.575152
3302.74 0.572439
3305.6 0.579957
3308.47 0.567841
3311.33 0.57982
3314.2 0.552804
3317.06 0.558056
3319.93 0.564825
3322.79 0.570698
3325.65 0.532467
3328.52 0.546978
3331.38 0.563709
3334.25 0.57426
3337.11 0.583298
3339.98 0.550742
3342.84 0.566607
3345.71 0.580827
3348.57 0.56061
3351.43 0.559686
3354.3 0.585163
3357.16 0.566477
3360.03 0.55299
3362.89 0.579045
3365.76 0.589735
3368.62 0.588483
3371.49 0.566859
3374.35 0.576071
3377.21 0.572255
3380.08 0.594372
3382.94 0.548316
3385.81 0.588382
3388.67 0.581381
3391.54 0.598597
3394.4 0.595575
3397.27 0.58383
3400.13 0.583666
3402.99 0.579136
3405.86 0.580669
3408.72 0.583107
3411.59 0.580323
3414.45 0.569945
3417.32 0.566412
3420.18 0.583869
3423.05 0.585993
3425.91 0.582958
3428.77 0.605305
3431.64 0.597456
3434.5 0.598695
3437.37 0.591786
3440.23 0.600741
3443.1 0.578855
3445.96 0.556107
3448.83 0.581774
3451.69 0.558902
3454.56 0.566094
3457.42 0.557076
3460.28 0.608572
3463.15 0.57254
3466.01 0.59522
3468.88 0.582241
3471.74 0.567519
3474.61 0.566429
3477.47 0.582245
3480.34 0.612859
3483.2 0.608144
3486.06 0.585003
3488.93 0.596023
3491.79 0.571701
3494.66 0.578254
3497.52 0.577601
3500.39 0.602694
3503.25 0.598008
3506.12 0.577631
3508.98 0.57389
3511.84 0.560604
3514.71 0.584297
3517.57 0.575642
3520.44 0.576384
3523.3 0.604603
3526.17 0.638276
3529.03 0.594423
3531.9 0.579318
3534.76 0.608962
3537.62 0.621948
3540.49 0.607617
3543.35 0.577648
3546.22 0.576772
3549.08 0.606674
3551.95 0.569697
3554.81 0.553611
3557.68 0.588306
3560.54 0.60977
3563.41 0.606285
3566.27 0.593484
3569.13 0.612349
3572 0.54861
3574.86 0.555201
3577.73 0.598422
3580.59 0.598388
3583.46 0.57186
3586.32 0.600335
3589.19 0.592016
3592.05 0.616817
3594.91 0.601735
3597.78 0.582036
3600.64 0.600555
3603.51 0.595508
3606.37 0.595846
3609.24 0.597564
3612.1 0.61186
3614.97 0.63402
3617.83 0.628094
3620.69 0.61034
3623.56 0.611752
3626.42 0.622911
3629.29 0.590897
3632.15 0.589951
3635.02 0.607512
3637.88 0.61212
3640.75 0.60015
3643.61 0.586644
3646.47 0.626576
3649.34 0.61317
3652.2 0.613287
3655.07 0.591907
3657.93 0.598093
3660.8 0.592412
3663.66 0.615966
3666.53 0.608421
3669.39 0.610508
3672.26 0.625294
3675.12 0.645184
3677.98 0.612542
3680.85 0.623405
3683.71 0.617556
3686.58 0.589707
3689.44 0.628711
3692.31 0.658298
3695.17 0.628985
3698.04 0.633654
3700.9 0.633209
3703.76 0.612999
3706.63 0.633096
3709.49 0.629148
3712.36 0.606553
3715.22 0.612196
3718.09 0.604266
3720.95 0.593247
3723.82 0.602531
3726.68 0.619605
3729.54 0.618644
3732.41 0.611252
3735.27 0.62985
3738.14 0.638625
3741 0.67251
3743.87 0.595686
3746.73 0.639153
3749.6 0.59103
3752.46 0.621883
3755.32 0.609679
3758.19 0.634259
3761.05 0.628995
3763.92 0.659493
3766.78 0.645393
3769.65 0.627084
3772.51 0.599065
3775.38 0.616065
3778.24 0.633567
3781.11 0.639039
3783.97 0.619769
3786.83 0.618149
3789.7 0.619032
3792.56 0.632223
3795.43 0.630055
3798.29 0.667449
3801.16 0.61232
3804.02 0.618205
3806.89 0.622074
3809.75 0.618551
3812.61 0.655661
3815.48 0.658439
3818.34 0.648913
3821.21 0.637725
3824.07 0.64223
3826.94 0.625027
3829.8 0.624012
3832.67 0.605584
3835.53 0.559819
3838.39 0.588968
3841.26 0.613956
3844.12 0.66046
3846.99 0.661975
3849.85 0.630167
3852.72 0.622585
3855.58 0.654861
3858.45 0.602821
3861.31 0.62353
3864.17 0.607592
3867.04 0.619875
3869.9 0.619596
3872.77 0.617204
3875.63 0.614897
3878.5 0.601207
3881.36 0.617067
3884.23 0.642589
3887.09 0.624977
3889.96 0.614575
3892.82 0.595883
3895.68 0.630328
3898.55 0.625148
3901.41 0.642036
3904.28 0.652817
3907.14 0.618781
3910.01 0.623889
3912.87 0.640498
3915.74 0.601738
3918.6 0.60123
3921.46 0.60967
3924.33 0.623599
3927.19 0.607182
3930.06 0.576225
3932.92 0.651953
3935.79 0.649719
3938.65 0.656618
3941.52 0.62209
3944.38 0.66269
3947.24 0.637377
3950.11 0.608747
3952.97 0.60589
3955.84 0.638279
3958.7 0.638726
3961.57 0.635885
3964.43 0.641479
3967.3 0.64949
3970.16 0.62318
3973.02 0.618662
3975.89 0.630301
3978.75 0.651504
3981.62 0.652611
3984.48 0.640193
3987.35 0.643836
3990.21 0.63837
3993.08 0.644393
3995.94 0.611296
3998.81 0.626017
4001.67 0.667203
4004.53 0.642051
4007.4 0.657195
4010.26 0.642348
4013.13 0.672503
4015.99 0.677526
4018.86 0.661597
4021.72 0.629081
4024.59 0.61372
4027.45 0.633898
4030.31 0.64635
4033.18 0.637029
4036.04 0.658392
4038.91 0.686986
4041.77 0.657807
4044.64 0.651563
4047.5 0.669854
4050.37 0.704896
4053.23 0.634092
4056.09 0.627755
4058.96 0.668169
4061.82 0.644896
4064.69 0.672552
4067.55 0.680817
4070.42 0.632318
4073.28 0.65609
4076.15 0.652438
4079.01 0.665512
4081.88 0.642691
4084.74 0.648898
4087.6 0.677745
4090.47 0.654035
4093.33 0.65125
4096.2 0.665793
4099.06 0.668765
4101.93 0.631815
4104.79 0.639481
4107.66 0.657805
4110.52 0.622142
4113.38 0.622498
4116.25 0.600567
4119.11 0.66669
4121.98 0.676905
4124.84 0.671081
4127.71 0.670167
4130.57 0.638662
4133.44 0.678491
4136.3 0.670475
4139.16 0.690217
4142.03 0.669478
4144.89 0.676604
4147.76 0.667219
4150.62 0.673181
4153.49 0.665633
4156.35 0.644389
4159.22 0.674375
4162.08 0.661567
4164.94 0.63746
4167.81 0.647041
4170.67 0.668054
4173.54 0.677985
4176.4 0.667724
4179.27 0.684658
4182.13 0.702316
4185 0.676355
4187.86 0.672164
4190.73 0.707596
4193.59 0.702631
4196.45 0.667759
4199.32 0.634524
4202.18 0.649804
4205.05 0.646627
4207.91 0.66615
4210.78 0.681658
4213.64 0.686344
4216.5 0.661195
4219.37 0.654568
4222.23 0.681696
4225.1 0.669267
4227.96 0.714125
4230.83 0.688043
4233.69 0.69605
4236.56 0.644852
4239.42 0.658132
4242.29 0.657823
4245.15 0.652768
4248.01 0.641864
4250.88 0.683437
4253.74 0.655505
4256.61 0.670419
4259.47 0.657343
4262.34 0.692234
4265.2 0.609365
4268.07 0.650432
4270.93 0.673529
4273.79 0.663535
4276.66 0.673636
4279.52 0.708101
4282.39 0.693839
4285.25 0.664486
4288.12 0.642803
4290.98 0.689633
4293.85 0.677635
4296.71 0.718425
4299.57 0.68295
4302.44 0.646663
4305.3 0.645628
4308.17 0.667315
4311.03 0.675667
4313.9 0.69612
4316.76 0.659388
4319.63 0.690165
4322.49 0.649484
4325.36 0.677212
4328.22 0.673729
4331.08 0.679465
4333.95 0.686751
4336.81 0.632398
4339.68 0.641255
4342.54 0.648815
4345.41 0.664484
4348.27 0.659733
4351.14 0.662818
4354 0.658482
4356.86 0.67979
4359.73 0.707041
4362.59 0.67473
4365.46 0.689897
4368.32 0.658962
4371.19 0.656366
4374.05 0.646273
4376.92 0.661321
4379.78 0.636069
4382.64 0.685088
4385.51 0.683554
4388.37 0.664507
4391.24 0.644225
4394.1 0.60468
4396.97 0.638859
4399.83 0.742737
4402.7 0.697498
4405.56 0.686972
4408.43 0.68514
4411.29 0.658076
4414.15 0.636179
4417.02 0.663149
4419.88 0.669403
4422.75 0.68564
4425.61 0.661919
4428.48 0.646843
4431.34 0.665088
4434.21 0.681653
4437.07 0.687084
4439.93 0.707479
4442.8 0.700421
4445.66 0.650506
4448.53 0.676951
4451.39 0.634966
4454.26 0.685263
4457.12 0.697523
4459.99 0.726019
4462.85 0.705232
4465.71 0.712074
4468.58 0.703619
4471.44 0.647956
4474.31 0.651351
4477.17 0.675615
4480.04 0.626665
4482.9 0.625478
4485.77 0.642338
4488.63 0.654484
4491.49 0.698768
4494.36 0.693218
4497.22 0.674798
4500.09 0.621954
4502.95 0.668554
4505.82 0.73305
4508.68 0.696363
4511.55 0.703306
4514.41 0.664968
4517.27 0.619631
4520.14 0.717472
4523 0.707414
4525.87 0.686167
4528.73 0.71334
4531.6 0.657271
4534.46 0.636352
4537.33 0.63805
4540.19 0.661916
4543.06 0.698642
4545.92 0.679763
4548.78 0.63686
4551.65 0.661727
4554.51 0.674138
4557.38 0.66219
4560.24 0.659133
4563.11 0.672776
4565.97 0.68766
4568.84 0.658134
4571.7 0.699488
4574.56 0.697683
4577.43 0.70062
4580.29 0.644438
4583.16 0.591647
4586.02 0.655746
4588.89 0.720084
4591.75 0.725109
4594.62 0.681601
4597.48 0.604379
4600.34 0.602087
4603.21 0.583578
4606.07 0.620375
4608.94 0.629925
4611.8 0.660249
4614.67 0.745818
4617.53 0.786082
4620.4 0.691955
4623.26 0.66302
4626.12 0.674975
4628.99 0.671447
4631.85 0.689753
4634.72 0.617669
4637.58 0.668157
4640.45 0.711456
4643.31 0.670048
4646.18 0.744873
4649.04 0.679342
4651.91 0.649455
4654.77 0.612837
4657.63 0.620464
4660.5 0.677023
4663.36 0.652441
4666.23 0.621457
4669.09 0.671266
4671.96 0.742088
4674.82 0.651265
4677.69 0.668098
4680.55 0.650237
4683.41 0.59697
4686.28 0.615616
4689.14 0.629707
4692.01 0.635763
4694.87 0.577366
4697.74 0.637384
4700.6 0.556819
4703.47 0.617746
4706.33 0.612036
4709.19 0.682474
4712.06 0.657401
4714.92 0.57364
4717.79 0.609104
4720.65 0.61734
4723.52 0.629568
4726.38 0.672467
4729.25 0.605432
4732.11 0.490034
4734.97 0.584228
4737.84 0.566735
4740.7 0.610294
4743.57 0.599868
4746.43 0.521694
4749.3 0.658042
4752.16 0.706579
4755.03 0.647184
4757.89 0.569511
4760.76 0.508741
4763.62 0.716156
4766.48 0.558789
4769.35 0.524518
4772.21 0.653826
4775.08 0.571349
4777.94 0.497192
4780.81 0.387274
4783.67 0.609771
4786.54 0.582783
4789.4 0.664227
4792.26 0.479655
4795.13 0.473394
4797.99 0.554849
4800.86 0.597099
4803.72 0.537574
4806.59 0.725996
4809.45 0.666685
4812.32 0.526262
4815.18 0.463814
4818.04 0.539132
4820.91 0.684081
4823.77 0.598732
4826.64 0.668226
4829.5 0.673593
4832.37 0.562366
4835.23 0.645113
4838.1 0.241064
4840.96 0.808073
4843.83 0.59086
4846.69 0.760877
4849.55 0.61098
4852.42 0.27767
4855.28 0.252885
4858.15 0.65421
4861.01 0.749245
4863.88 0.541606
4866.74 0.538918
4869.6 0.49943
4872.47 0.436275
4875.33 0.372283
4878.2 0.506957
4881.06 0.468162
4883.93 0.392257
4886.79 0.261394
4889.66 0.699024
4892.52 0.478797
4895.39 0.506186
4898.25 0.954653
4901.11 1.10655
4903.98 0.520743
4906.84 0.409445
4909.71 0.0782615
4912.57 0.105846
4915.44 0.184394
4918.3 0.965038
4921.17 0.779066
4924.03 0.912456
4926.89 0.218462
4929.76 -0.258385
4932.62 0.13012
4935.49 0.188199
4938.35 0.386174
4941.22 0.660873
4944.08 0.776628
4946.95 0.679597
4949.81 0.978593
4952.67 0.161693
4955.54 -0.341513
4958.4 0.968858
4961.27 0.235884
4964.13 0.583876
4967 -0.381397
4969.86 -0.124403
4972.73 -0.0337383
4975.59 1.07102
4978.46 0.255042
4981.32 -0.160427
4984.18 -0.835773
4987.05 -0.568159
4989.91 0.720793
4992.78 0.0430903
4995.64 0.357262
4998.51 0.437591
5001.37 -0.0839689
5004.24 -0.190631
5007.1 -0.815514
5009.96 0.071595
5012.83 0.106648
5015.69 1.98474
5018.56 -0.376583
5021.42 -1.38393
5024.29 -0.452025
5027.15 1.53222
5030.02 0.224781
5032.88 -2.08198
5035.75 -2.17868
5038.61 -0.809092
5041.47 -1.54054
5044.34 -0.663619
5047.2 1.04098
5050.07 1.22673
5052.93 0.260009
5055.8 -0.758392
5058.66 -1.89587
5061.52 1.71645
5064.39 0.274333
5067.25 -1.7982
5070.12 -2.92296
5072.98 -1.16734
5075.85 -1.83125
5078.71 -0.910791
5081.58 -2.34519
5084.44 -4.94269
5087.31 -2.91417
5090.17 -0.6442
5093.03 2.50195
5095.9 -0.991468
5098.76 0.408472
5101.63 1.39022
5104.49 4.63729
5107.36 -0.759928
5110.22 0.237656
5113.09 2.17169
5115.95 -0.119406
5118.81 -0.223002
5121.68 0.158091
5124.54 -0.940018
5127.41 2.4004
5130.27 9.92218
5133.14 2.26523
5136 -0.613963
5138.87 1.61755
5141.73 0.336047
5144.59 -0.864915
5147.46 3.89424
5150.32 2.32301
5153.19 0.70751
5156.05 0.79423
5158.92 -1.15456
5161.78 0.591777
5164.65 3.18427
5167.51 2.6685
5170.38 0.862385
5173.24 -1.05259
5176.1 -0.357441
5178.97 4.00543
5181.83 2.05778
5184.7 2.7064
5187.56 7.41384
5190.43 2.98193
5193.29 4.03761
5196.16 3.39135
5199.02 2.09292
5201.88 6.73211
5204.75 1.7863
5207.61 3.17593
5210.48 2.30246
5213.34 3.69466
5216.21 5.45457
5219.07 0.122718
5221.94 2.03025
5224.8 6.29756
5227.66 1.82676
5230.53 1.04884
5233.39 2.0593
5236.26 1.96609
5239.12 3.00878
5241.99 0.330347
5244.85 3.8282
5247.72 -0.51863
5250.58 0.487658
5253.44 2.06151
5256.31 6.10818
5259.17 1.77049
5262.04 4.45399
5264.9 2.18859
5267.77 6.84073
5270.63 1.7986
5273.5 3.89415
5276.36 5.5157
5279.23 2.02968
5282.09 3.91813
5284.95 2.01236
5287.82 1.25377
5290.68 -0.681901
5293.55 -0.404045
5296.41 0.996644
5299.28 8.25225
5302.14 3.81504
5305.01 0.332315
5307.87 0.276322
5310.73 3.19489
5313.6 8.37944
5316.46 1.51078
5319.33 -0.983609
5322.19 -0.0436535
5325.06 7.15083
5327.92 1.74841
5330.79 1.7417
5333.65 2.19015
5336.51 0.776008
5339.38 0.968347
5342.24 3.42576
5345.11 1.66676
5347.97 2.18073
5350.84 1.99146
5353.7 5.16531
5356.57 1.17938
5359.43 1.1017
5362.29 10.2929
5365.16 0.677441
5368.02 0.248528
5370.89 3.89693
5373.75 1.38773
5376.62 0.823401
5379.48 0.375328
5382.35 0.179236
5385.21 2.51047
5388.08 2.55819
5390.94 3.80835
5393.8 5.28141
5396.67 3.2929
5399.53 1.35592
5402.4 1.16589
5405.26 2.2832
5408.13 2.36225
5410.99 2.2826
5413.86 2.43871
5416.72 1.85042
5419.58 7.17839
5422.45 4.02086
5425.31 2.05708
5428.18 5.43018
5431.04 4.38826
5433.91 3.85707
5436.77 6.68871
5439.64 6.74607
5442.5 6.77134
5445.36 8.55107
5448.23 3.48599
5451.09 -0.514414
5453.96 1.25958
5456.82 9.43349
5459.69 1.60633
5462.55 -0.680947
5465.42 0.83639
5468.28 -0.612016
5471.15 0.414871
5474.01 9.4492
5476.87 1.65849
5479.74 9.40284
5482.6 2.73142
5485.47 -1.71309
5488.33 -1.75119
5491.2 0.430918
5494.06 -0.45548
5496.92 4.1321
5499.79 3.48617
5502.65 1.10447
5505.52 1.07552
5508.38 -0.042293
5511.25 3.75957
5514.11 1.48032
5516.98 3.62194
5519.84 3.78886
5522.71 2.01655
5525.57 2.61392
5528.43 -0.246662
5531.3 0.82456
5534.16 1.7609
5537.03 1.98498
5539.89 1.83472
5542.76 -0.0244744
5545.62 -1.82436
5548.49 1.31394
5551.35 3.2619
5554.21 8.53756
5557.08 1.62931
5559.94 4.5027
5562.81 1.45974
5565.67 2.18384
5568.54 1.38124
5571.4 2.53428
5574.27 -0.391482
5577.13 -1.50305
5579.99 9.75335
5582.86 2.96866
5585.72 3.75674
5588.59 6.35165
5591.45 1.29727
5594.32 1.11311
5597.18 5.6199
5600.05 0.920584
5602.91 -0.220691
5605.78 2.80053
5608.64 0.139495
5611.5 6.6189
5614.37 1.72166
5617.23 2.8495
5620.1 3.38177
5622.96 13.8139
5625.83 4.0489
5628.69 6.23259
5631.56 0.575402
5634.42 0.287589
5637.28 1.82784
5640.15 3.56451
5643.01 2.51782
5645.88 1.31917
5648.74 4.07526
5651.61 0.188096
5654.47 -0.712486
5657.34 5.05361
5660.2 6.59271
5663.06 2.76942
5665.93 10.2448
5668.79 1.63618
5671.66 0.12029
5674.52 0.0404733
5677.39 -0.195976
5680.25 1.05892
5683.12 1.31495
5685.98 0.0181324
5688.84 4.41187
5691.71 3.34415
5694.57 14.2844
5697.44 1.12292
5700.3 4.10762
5703.17 5.01827
5706.03 2.92085
5708.9 1.10411
5711.76 -0.0819753
5714.62 0.405148
5717.49 2.02256
5720.35 5.86992
5723.22 10.8543
5726.08 5.11895
5728.95 2.81274
5731.81 1.4508
5734.68 1.4729
5737.54 -1.0665
5740.41 -0.930876
5743.27 2.47165
5746.13 3.5059
5749 3.2397
5751.86 3.98345
5754.73 1.63166
5757.59 4.64139
5760.46 2.51512
5763.32 3.30095
5766.19 3.48181
5769.05 0.837748
5771.91 -1.09545
5774.78 5.75135
5777.64 2.36809
5780.51 6.47583
5783.37 1.27634
5786.24 -0.620888
5789.1 1.49355
5791.97 9.31633
5794.83 1.4326
5797.69 3.38318
5800.56 2.55772
5803.42 2.35843
5806.29 0.18856
5809.15 3.05485
5812.02 5.55318
5814.88 2.03555
5817.75 -0.846798
5820.61 -1.49677
5823.48 0.32772
5826.34 2.9588
5829.2 0.266726
5832.07 5.55919
5834.93 9.27369
5837.8 4.75825
5840.66 6.08292
5843.53 5.36192
5846.39 1.17892
5849.26 0.551752
5852.12 9.50602
5854.98 0.357356
5857.85 0.945545
5860.71 2.06092
5863.58 -0.582429
spectrumdark 2048
0 7256.17
2.8709 6933.93
5.74181 1883.72
8.61271 2111.66
11.4836 1519.93
14.3545 895.048
17.2254 1111.15
20.0963 1221.99
22.9672 1278.16
25.8381 1475.07
28.709 1924.3
31.5799 2431.83
34.4509 2729.37
37.3218 2404.82
40.1927 2766.22
43.0636 3091.81
45.9345 2862.78
48.8054 3385.93
51.6763 3259.87
54.5472 2912.26
57.4181 2843.42
60.289 2524.86
63.1599 2791.57
66.0308 2401.99
68.9017 1861.45
71.7726 2101.5
74.6435 1858.29
77.5144 1861.27
80.3853 2808.26
83.2562 2741.14
86.1271 2862.52
88.998 3789.85
91.8689 4063.87
94.7398 3738.47
97.6107 4211.55
100.482 5116.92
103.353 3910.44
106.223 4506.01
109.094 3798.76
111.965 4079.27
114.836 3063.73
117.707 2675.44
120.578 3247.93
123.449 3166.4
126.32 2815.78
129.191 3642.68
132.062 3867.88
134.932 3721.92
137.803 2913.1
140.674 3444.23
143.545 3547.63
146.416 2744.85
149.287 3341.89
152.158 4012.3
155.029 4207.13
157.9 3452.48
160.771 3009.72
163.642 3442.85
166.512 2387.21
169.383 4192.08
172.254 2802.74
175.125 2220.8
177.996 2913.15
180.867 2486.48
183.738 2715.12
186.609 3626.39
189.48 3087.73
192.351 3422.88
195.221 3326.2
198.092 3113.74
200.963 3291.7
203.834 2538.2
206.705 1747.13
209.576 2202.08
212.447 2723.93
215.318 2928.23
218.189 2942.89
221.06 2935.27
223.931 3841.98
226.801 3039.33
229.672 3141.47
232.543 2996.01
235.414 3166.84
238.285 2823.16
241.156 3031.7
244.027 3662.05
246.898 3660.55
249.769 3602.34
252.64 3361.27
255.51 2438.75
258.381 2441.86
261.252 2707.21
264.123 2570.69
266.994 2949.69
269.865 2609.75
272.736 3035.71
275.607 2743.05
278.478 2874.75
281.349 3480.68
284.22 2665.21
287.09 2385.22
289.961 2117.31
292.832 2074.07
295.703 2324.32
298.574 2660.88
301.445 2117.54
304.316 1867.77
307.187 2211.57
310.058 2002.78
312.929 2795.06
315.799 2951.89
318.67 2137.11
321.541 2277.4
324.412 2389.19
327.283 2308
330.154 1835.78
333.025 1880.98
335.896 2741.35
338.767 2926.9
341.638 2469.07
344.509 2732.18
347.379 2409.42
350.25 2548.59
353.121 2466.07
355.992 2394.81
358.863 2595.68
361.734 2823.62
364.605 2166.53
367.476 1714.63
370.347 2351.35
373.218 2972.65
376.088 2443.91
378.959 2991.62
381.83 2959.57
384.701 2148.23
387.572 2319.86
390.443 2914.87
393.314 2324.16
396.185 2382.92
399.056 2678.36
401.927 2664.57
404.798 2830.41
407.668 2519.54
410.539 1999.42
413.41 2302.44
416.281 2954.49
419.152 2482.85
422.023 1737.36
424.894 2182.42
427.765 2644.92
430.636 2090.15
433.507 2605.35
436.378 2568.03
439.248 2196.12
442.119 1956.98
444.99 1775.07
447.861 1987.15
450.732 1841.79
453.603 2011.8
456.474 1744.88
459.345 1946.69
462.216 2081.02
465.087 2015.4
467.957 2461.5
470.828 2078.12
473.699 1646.57
476.57 2197.97
479.441 2363.26
482.312 2707.73
485.183 2310.68
488.054 1677.97
490.925 2278.21
493.796 2053.56
496.666 2020.77
499.537 2188.73
502.408 2186.58
505.279 2360.88
508.15 1987.33
511.021 1801.69
513.892 1989.03
516.763 1970.85
519.634 1856.02
522.505 2088.88
525.376 1876.41
528.246 2033.54
531.117 2097.31
533.988 2153.18
536.859 1952.4
539.73 1806
542.601 1755.16
545.472 2204.41
548.343 1868.34
551.214 1901.2
554.085 2150.95
556.955 1838.66
559.826 1794.83
562.697 1291.57
565.568 2343.93
568.439 2124.96
571.31 2057
574.181 2721.74
577.052 1685.84
579.923 1571.93
582.794 2313.14
585.664 2521.18
588.535 3205.87
591.406 3373.44
594.277 3505.5
597.148 3449.57
600.019 3961.59
602.89 5155.68
605.761 5310.64
608.632 6471.42
611.503 6666.33
614.374 7074.38
617.244 8119.93
620.115 9768.34
622.986 11280.7
625.857 12939.6
628.728 15079.2
631.599 17099.8
634.47 18235.4
637.341 20677
640.212 22509
643.083 24360.6
645.953 26043.9
648.824 28072
651.695 30753.4
654.566 33044.6
657.437 35007.6
660.308 37479.5
663.179 39906.8
666.05 41397.3
668.921 39570.6
671.792 45838.1
674.663 48962.2
677.533 51240.9
680.404 53923.6
683.275 55625.9
686.146 57979.2
689.017 61301.3
691.888 63503.5
694.759 66537.4
697.63 68343.2
700.501 70352.8
703.372 73477.9
706.242 76287
709.113 79250.4
711.984 81688.8
714.855 84191.6
717.726 86946
720.597 90189
723.468 93287.8
726.339 96952.8
729.21 99919.8
732.081 103018
734.952 106262
737.822 109951
740.693 113900
743.564 117607
746.435 120583
749.306 124981
752.177 127573
755.048 131720
757.919 135451
760.79 139899
763.661 144428
766.531 147509
769.402 152348
772.273 156270
775.144 159950
778.015 164658
780.886 169080
783.757 172974
786.628 176872
789.499 179395
792.37 182480
795.24 186066
798.111 190161
800.982 194504
803.853 199379
806.724 203879
809.595 209020
812.466 214337
815.337 219549
818.208 224324
821.079 228969
823.95 233689
826.82 237845
829.691 243195
832.562 247545
835.433 252263
838.304 256663
841.175 260288
844.046 264191
846.917 268402
849.788 272420
852.659 277211
855.53 280631
858.4 284787
861.271 288948
864.142 292302
867.013 297495
869.884 301589
872.755 305372
875.626 309534
878.497 313562
881.368 318223
884.239 322560
887.109 327651
889.98 333037
892.851 337224
895.722 342210
898.593 347338
901.464 352271
904.335 357733
907.206 362865
910.077 368330
912.948 374313
915.819 379134
918.689 385144
921.56 390975
924.431 396724
927.302 402316
930.173 408334
933.044 415068
935.915 422243
938.786 429152
941.657 437154
944.528 444247
947.398 451740
950.269 460530
953.14 468939
956.011 478584
958.882 488780
961.753 499167
964.624 509874
967.495 521109
970.366 533624
973.237 546297
976.107 558281
978.978 571946
981.849 583858
984.72 595652
987.591 606359
990.462 616899
993.333 625528
996.204 632690
999.075 637588
1001.95 640679
1004.82 639914
1007.69 638015
1010.56 633246
1013.43 625932
1016.3 618313
1019.17 608967
1022.04 599834
1024.91 591102
1027.78 580953
1030.65 569958
1033.53 558989
1036.4 546658
1039.27 534443
1042.14 521940
1045.01 509801
1047.88 497757
1050.75 484929
1053.62 472399
1056.49 459332
1059.36 446834
1062.23 434814
1065.11 422045
1067.98 409493
1070.85 397234
1073.72 384839
1076.59 373672
1079.46 363099
1082.33 353619
1085.2 345085
1088.07 337659
1090.94 330708
1093.81 324782
1096.69 320318
1099.56 317586
1102.43 314873
1105.3 312385
1108.17 310449
1111.04 308811
1113.91 308331
1116.78 307877
1119.65 308097
1122.52 307309
1125.39 307049
1128.27 307014
1131.14 306930
1134.01 306848
1136.88 307344
1139.75 307287
1142.62 306694
1145.49 306046
1148.36 305561
1151.23 304515
1154.1 303560
1156.97 302158
1159.85 300357
1162.72 298544
1165.59 296339
1168.46 294683
1171.33 292302
1174.2 289933
1177.07 287362
1179.94 284550
1182.81 281287
1185.68 277948
1188.55 275212
1191.43 272604
1194.3 269869
1197.17 266953
1200.04 264134
1202.91 261559
1205.78 259658
1208.65 257929
1211.52 256609
1214.39 255150
1217.26 254961
1220.13 254907
1223.01 256533
1225.88 258255
1228.75 260708
1231.62 264037
1234.49 268323
1237.36 273187
1240.23 278471
1243.1 284338
1245.97 290015
1248.84 296192
1251.71 301070
1254.59 304224
1257.46 306415
1260.33 307009
1263.2 307154
1266.07 308338
1268.94 309468
1271.81 310488
1274.68 310792
1277.55 311358
1280.42 311267
1283.29 311151
1286.17 310520
1289.04 309470
1291.91 308776
1294.78 308653
1297.65 307712
1300.52 306937
1303.39 305930
1306.26 305517
1309.13 304402
1312 303290
1314.87 302023
1317.75 301174
1320.62 299640
1323.49 299560
1326.36 299254
1329.23 299358
1332.1 298748
1334.97 297988
1337.84 295653
1340.71 291790
1343.58 292327
1346.45 295431
1349.33 294845
1352.2 293891
1355.07 292961
1357.94 291536
1360.81 289965
1363.68 284790
1366.55 284881
1369.42 289021
1372.29 287182
1375.16 283737
1378.03 282393
1380.91 286290
1383.78 286310
1386.65 284893
1389.52 276989
1392.39 281242
1395.26 277814
1398.13 270804
1401 273466
1403.87 278839
1406.74 277833
1409.61 279580
1412.48 280328
1415.36 278487
1418.23 272881
1421.1 256039
1423.97 267257
1426.84 272944
1429.71 275288
1432.58 270246
1435.45 271217
1438.32 255956
1441.19 263487
1444.06 274476
1446.94 273198
1449.81 266559
1452.68 267884
1455.55 263174
1458.42 238402
1461.29 241165
1464.16 266550
1467.03 258545
1469.9 264331
1472.77 260058
1475.64 242485
1478.52 258432
1481.39 268960
1484.26 269591
1487.13 269336
1490 258581
1492.87 252010
1495.74 262082
1498.61 248794
1501.48 252047
1504.35 257801
1507.22 238776
1510.1 215779
1512.97 248931
1515.84 252354
1518.71 243946
1521.58 237851
1524.45 224049
1527.32 242889
1530.19 248020
1533.06 254685
1535.93 241412
1538.8 243579
1541.68 213164
1544.55 214910
1547.42 237529
1550.29 251442
1553.16 247902
1556.03 239474
1558.9 223338
1561.77 193388
1564.64 235348
1567.51 247773
1570.38 246229
1573.26 237003
1576.13 246223
1579 224643
1581.87 247226
1584.74 250819
1587.61 250532
1590.48 249134
1593.35 246478
1596.22 244426
1599.09 241575
1601.96 239375
1604.84 235006
1607.71 230637
1610.58 225226
1613.45 220159
1616.32 214017
1619.19 194060
1622.06 202964
1624.93 202290
1627.8 200950
1630.67 205284
1633.54 207974
1636.42 201937
1639.29 190807
1642.16 215071
1645.03 217542
1647.9 207804
1650.77 199421
1653.64 204844
1656.51 179069
1659.38 226210
1662.25 233875
1665.12 228448
1668 232859
1670.87 228444
1673.74 222193
1676.61 229696
1679.48 226719
1682.35 234450
1685.22 222882
1688.09 205427
1690.96 236588
1693.83 235645
1696.7 230399
1699.58 205249
1702.45 205400
1705.32 217063
1708.19 229259
1711.06 235957
1713.93 236894
1716.8 227279
1719.67 211903
1722.54 221581
1725.41 238081
1728.28 237702
1731.16 234551
1734.03 224974
1736.9 204853
1739.77 223493
1742.64 224291
1745.51 230074
1748.38 230782
1751.25 226098
1754.12 221154
1756.99 232440
1759.86 230369
1762.74 232408
1765.61 227038
1768.48 233423
1771.35 223467
1774.22 217795
1777.09 217928
1779.96 229079
1782.83 227144
1785.7 226659
1788.57 224810
1791.44 225071
1794.32 216176
1797.19 215613
1800.06 222175
1802.93 218629
1805.8 218578
1808.67 219760
1811.54 217210
1814.41 213393
1817.28 211973
1820.15 205938
1823.02 199967
1825.9 196722
1828.77 190621
1831.64 190051
1834.51 187493
1837.38 190560
1840.25 187991
1843.12 184191
1845.99 178171
1848.86 174813
1851.73 179445
1854.6 178714
1857.48 176999
1860.35 174981
1863.22 172944
1866.09 170851
1868.96 167216
1871.83 163136
1874.7 164236
1877.57 164802
1880.44 163177
1883.31 161333
1886.18 159778
1889.06 157150
1891.93 154731
1894.8 153030
1897.67 152061
1900.54 150759
1903.41 149429
1906.28 147389
1909.15 145360
1912.02 143414
1914.89 141586
1917.76 139199
1920.64 136265
1923.51 135246
1926.38 133941
1929.25 132285
1932.12 129386
1934.99 126692
1937.86 124171
1940.73 121317
1943.6 118514
1946.47 115344
1949.34 114179
1952.21 112091
1955.09 109635
1957.96 107635
1960.83 105146
1963.7 101436
1966.57 99034.1
1969.44 96836.1
1972.31 95179
1975.18 93643.4
1978.05 91857.5
1980.92 90471.2
1983.79 92395.4
1986.67 95548.4
1989.54 97025.3
1992.41 97821.7
1995.28 98495.7
1998.15 99323.7
2001.02 99675.1
2003.89 99164.9
2006.76 97685.9
2009.63 95220.9
2012.5 93380.1
2015.37 92738.9
2018.25 92033.5
2021.12 91658.7
2023.99 91521.4
2026.86 91276.2
2029.73 90888.1
2032.6 90884
2035.47 90724.4
2038.34 91085.7
2041.21 92400
2044.08 94544.1
2046.95 96755.1
2049.83 98380.9
2052.7 100580
2055.57 106176
2058.44 109423
2061.31 111911
2064.18 113377
2067.05 115023
2069.92 116427
2072.79 118284
2075.66 119820
2078.53 121692
2081.41 123921
2084.28 126323
2087.15 128324
2090.02 130031
2092.89 130780
2095.76 130975
2098.63 129457
2101.5 128865
2104.37 129479
2107.24 130103
2110.11 130748
2112.99 131380
2115.86 132461
2118.73 133315
2121.6 133696
2124.47 132970
2127.34 131187
2130.21 128532
2133.08 124875
2135.95 119976
2138.82 114037
2141.69 109775
2144.57 106331
2147.44 103100
2150.31 99913.9
2153.18 96883.4
2156.05 93985.3
2158.92 90237.5
2161.79 84923.7
2164.66 82282.2
2167.53 84879.9
2170.4 87496.7
2173.27 90075.6
2176.15 91543.5
2179.02 91850.6
2181.89 92240.2
2184.76 92263.3
2187.63 92918.1
2190.5 94371.8
2193.37 95707.2
2196.24 97124.8
2199.11 98450.2
2201.98 99366.8
2204.85 100385
2207.73 101587
2210.6 102417
2213.47 103525
2216.34 104187
2219.21 105247
2222.08 106003
2224.95 107053
2227.82 108212
2230.69 109467
2233.56 110600
2236.43 111887
2239.31 113338
2242.18 114894
2245.05 116578
2247.92 118157
2250.79 119741
2253.66 121181
2256.53 122374
2259.4 123418
2262.27 125623
2265.14 128040
2268.01 129757
2270.89 131824
2273.76 134247
2276.63 137284
2279.5 140408
2282.37 144047
2285.24 148462
2288.11 153510
2290.98 159322
2293.85 165304
2296.72 171024
2299.59 175797
2302.47 179656
2305.34 183219
2308.21 186195
2311.08 188893
2313.95 191158
2316.82 193061
2319.69 194992
2322.56 197055
2325.43 200059
2328.3 206964
2331.17 213808
2334.05 211719
2336.92 208795
2339.79 206787
2342.66 206405
2345.53 207991
2348.4 212740
2351.27 220411
2354.14 223540
2357.01 209790
2359.88 195767
2362.75 186615
2365.63 182189
2368.5 181313
2371.37 183720
2374.24 188234
2377.11 193850
2379.98 199290
2382.85 203131
2385.72 204210
2388.59 203075
2391.46 201241
2394.33 198244
2397.21 195182
2400.08 192167
2402.95 189450
2405.82 186452
2408.69 183718
2411.56 180983
2414.43 179105
2417.3 177374
2420.17 175647
2423.04 173961
2425.91 172402
2428.79 170633
2431.66 169285
2434.53 167966
2437.4 166630
2440.27 165934
2443.14 165069
2446.01 164216
2448.88 163558
2451.75 162985
2454.62 162666
2457.49 162714
2460.36 162897
2463.24 162814
2466.11 162678
2468.98 161731
2471.85 160956
2474.72 160209
2477.59 159514
2480.46 158786
2483.33 157889
2486.2 156892
2489.07 156186
2491.95 155442
2494.82 154920
2497.69 154354
2500.56 153901
2503.43 153431
2506.3 152770
2509.17 152178
2512.04 151590
2514.91 151158
2517.78 150683
2520.65 150251
2523.53 149568
2526.4 149271
2529.27 148837
2532.14 148379
2535.01 148333
2537.88 148047
2540.75 147839
2543.62 147765
2546.49 147702
2549.36 147633
2552.23 147582
2555.1 147535
2557.98 147546
2560.85 147980
2563.72 148066
2566.59 148200
2569.46 148865
2572.33 149196
2575.2 149822
2578.07 150380
2580.94 150833
2583.81 151523
2586.68 152604
2589.56 153667
2592.43 154553
2595.3 155985
2598.17 157178
2601.04 158351
2603.91 159897
2606.78 161520
2609.65 163248
2612.52 165159
2615.39 167316
2618.26 169458
2621.14 171943
2624.01 174635
2626.88 177062
2629.75 179833
2632.62 182968
2635.49 186192
2638.36 189546
2641.23 192883
2644.1 196429
2646.97 200203
2649.84 204137
2652.72 207796
2655.59 211691
2658.46 215367
2661.33 219082
2664.2 222216
2667.07 224368
2669.94 225458
2672.81 225400
2675.68 225017
2678.55 224194
2681.42 223502
2684.3 222721
2687.17 222086
2690.04 221528
2692.91 220969
2695.78 220168
2698.65 219394
2701.52 218692
2704.39 217930
2707.26 217253
2710.13 216567
2713 215703
2715.88 214900
2718.75 214414
2721.62 213741
2724.49 213091
2727.36 212256
2730.23 211714
2733.1 211002
2735.97 210425
2738.84 209707
2741.71 208780
2744.58 208226
2747.46 207704
2750.33 207026
2753.2 206226
2756.07 205620
2758.94 204773
2761.81 204253
2764.68 203649
2767.55 202962
2770.42 202213
2773.29 201638
2776.16 201089
2779.04 200380
2781.91 200053
2784.78 199250
2787.65 198562
2790.52 197932
2793.39 197186
2796.26 196561
2799.13 196185
2802 195165
2804.87 194758
2807.74 194202
2810.62 193383
2813.49 193000
2816.36 192174
2819.23 191575
2822.1 191028
2824.97 190424
2827.84 189708
2830.71 189100
2833.58 188333
2836.45 187694
2839.32 187044
2842.2 186161
2845.07 185472
2847.94 184709
2850.81 183881
2853.68 182990
2856.55 181895
2859.42 181121
2862.29 180428
2865.16 179977
2868.03 179628
2870.9 179015
2873.78 178560
2876.65 177862
2879.52 177376
2882.39 176947
2885.26 176457
2888.13 175974
2891 175250
2893.87 174567
2896.74 173597
2899.61 172903
2902.48 172234
2905.36 171780
2908.23 170966
2911.1 170137
2913.97 169269
2916.84 168367
2919.71 167489
2922.58 166618
2925.45 165722
2928.32 164773
2931.19 163983
2934.06 163112
2936.94 162836
2939.81 162581
2942.68 162176
2945.55 161842
2948.42 161419
2951.29 161156
2954.16 160718
2957.03 160148
2959.9 159591
2962.77 158978
2965.64 158235
2968.52 157844
2971.39 157290
2974.26 157050
2977.13 156969
2980 156833
2982.87 156794
2985.74 156288
2988.61 156129
2991.48 155572
2994.35 155139
2997.22 154492
3000.1 154274
3002.97 153844
3005.84 153566
3008.71 152959
3011.58 152430
3014.45 151715
3017.32 150867
3020.19 150317
3023.06 150081
3025.93 149775
3028.8 149087
3031.68 148580
3034.55 148083
3037.42 147225
3040.29 146756
3043.16 146238
3046.03 145715
3048.9 145362
3051.77 144802
3054.64 144097
3057.51 143751
3060.38 143179
3063.26 142765
3066.13 142127
3069 141456
3071.87 140928
3074.74 140706
3077.61 140235
3080.48 139554
3083.35 138767
3086.22 138170
3089.09 137873
3091.96 137573
3094.83 136924
3097.71 136382
3100.58 135663
3103.45 134917
3106.32 134485
3109.19 134149
3112.06 133602
3114.93 133025
3117.8 132478
3120.67 131603
3123.54 131197
3126.41 130835
3129.29 130375
3132.16 129741
3135.03 129313
3137.9 128675
3140.77 128156
3143.64 127529
3146.51 126959
3149.38 126839
3152.25 126151
3155.12 125438
3157.99 124802
3160.87 124502
3163.74 123972
3166.61 123509
3169.48 122767
3172.35 122075
3175.22 121517
3178.09 121129
3180.96 120506
3183.83 119868
3186.7 119464
3189.57 119056
3192.45 118539
3195.32 117961
3198.19 117455
3201.06 116828
3203.93 116199
3206.8 115730
3209.67 115486
3212.54 115039
3215.41 114516
3218.28 114211
3221.15 113589
3224.03 113121
3226.9 112767
3229.77 112589
3232.64 112239
3235.51 111945
3238.38 111454
3241.25 111236
3244.12 110962
3246.99 110725
3249.86 110244
3252.73 110129
3255.61 110045
3258.48 109510
3261.35 109244
3264.22 108919
3267.09 108848
3269.96 108605
3272.83 108021
3275.7 107772
3278.57 107491
3281.44 107334
3284.31 107230
3287.19 106925
3290.06 106443
3292.93 106336
3295.8 105766
3298.67 105297
3301.54 105085
3304.41 104614
3307.28 104306
3310.15 103667
3313.02 103270
3315.89 102985
3318.77 102674
3321.64 102160
3324.51 102020
3327.38 101381
3330.25 100596
3333.12 100009
3335.99 99754.7
3338.86 99346.3
3341.73 98511.8
3344.6 98242
3347.47 97700.9
3350.35 97052.7
3353.22 96610
3356.09 96129
3358.96 95604.7
3361.83 94913.3
3364.7 94348.4
3367.57 93694.2
3370.44 93293.9
3373.31 92551.7
3376.18 92161.6
3379.05 91780.9
3381.93 91178.9
3384.8 90460.3
3387.67 90001.6
3390.54 89359.9
3393.41 88799.8
3396.28 88234.1
3399.15 87504.6
3402.02 87194.1
3404.89 86399.9
3407.76 85923.2
3410.63 85608.2
3413.51 84960.1
3416.38 84456.6
3419.25 83762
3422.12 83234.4
3424.99 82661.1
3427.86 81822.2
3430.73 81581.2
3433.6 81099.7
3436.47 80521.4
3439.34 79788.6
3442.21 79543
3445.09 79252.9
3447.96 78481.1
3450.83 77885
3453.7 77240.7
3456.57 77107
3459.44 76579.8
3462.31 76049.1
3465.18 75518.6
3468.05 75137.6
3470.92 74616
3473.79 74014.3
3476.67 73805.4
3479.54 73444.4
3482.41 72976.7
3485.28 72738.9
3488.15 71883.5
3491.02 71664.4
3493.89 71256.4
3496.76 71066.2
3499.63 70590.7
3502.5 69953.2
3505.37 69778.1
3508.25 68968
3511.12 68620.4
3513.99 68724.1
3516.86 68168.8
3519.73 68372.5
3522.6 68214.8
3525.47 67866.9
3528.34 67378.9
3531.21 66841.2
3534.08 66853.7
3536.95 66836.1
3539.83 67015.9
3542.7 66828
3545.57 66785.9
3548.44 66682.3
3551.31 65828.4
3554.18 65684.8
3557.05 66229.4
3559.92 66023.6
3562.79 66608.3
3565.66 66179.6
3568.53 66105.9
3571.41 65358.8
3574.28 63206.7
3577.15 65891.9
3580.02 66957.4
3582.89 66966
3585.76 66937.9
3588.63 67110.1
3591.5 66449.2
3594.37 64068.1
3597.24 66592.1
3600.11 67346.7
3602.98 67252.2
3605.86 68057.3
3608.73 68463
3611.6 69350.7
3614.47 67247.1
3617.34 67331.8
3620.21 67843.4
3623.08 69502.5
3625.95 67352
3628.82 70039.1
3631.69 71873.5
3634.56 67127.6
3637.44 66853.1
3640.31 72271.8
3643.18 73483.3
3646.05 73777.9
3648.92 73562.6
3651.79 72923.5
3654.66 67266.9
3657.53 65817.7
3660.4 72528.3
3663.27 70748.1
3666.15 73810.3
3669.02 74147.6
3671.89 74177.3
3674.76 71287.1
3677.63 66061.5
3680.5 68225.5
3683.37 64639.3
3686.24 71271.7
3689.11 72814.4
3691.98 72994
3694.85 67221.1
3697.72 67553.3
3700.6 72135.8
3703.47 73418.3
3706.34 73142.6
3709.21 70801.8
3712.08 72583.2
3714.95 71540.9
3717.82 67390.9
3720.69 68498.5
3723.56 72286.9
3726.43 71688.9
3729.3 70396.3
3732.18 69730.6
3735.05 70170.7
3737.92 68739.5
3740.79 65046.8
3743.66 63732.7
3746.53 68435.6
3749.4 66631.1
3752.27 59409.7
3755.14 64692.9
3758.01 60631
3760.88 66206.9
3763.76 70274.7
3766.63 69336.8
3769.5 71462
3772.37 70720.7
3775.24 70396.6
3778.11 69783.8
3780.98 72433.3
3783.85 72195.3
3786.72 70378.1
3789.59 71867.2
3792.46 71558
3795.34 71917.8
3798.21 71747.4
3801.08 71060
3803.95 68744.6
3806.82 67169.7
3809.69 63941.8
3812.56 67302.5
3815.43 66258.6
3818.3 70153.4
3821.17 68026.4
3824.04 63693.5
3826.92 65281.6
3829.79 64078.2
3832.66 68072.4
3835.53 67946.1
3838.4 66668.9
3841.27 65713.7
3844.14 61905.6
3847.01 62523.2
3849.88 65261.8
3852.75 66569.5
3855.62 67384.1
3858.5 61930.3
3861.37 53640.8
3864.24 63332.4
3867.11 65754.1
3869.98 64083.2
3872.85 62979.3
3875.72 62458.6
3878.59 61206.7
3881.46 63366
3884.33 65100.4
3887.2 62774.2
3890.08 63503
3892.95 60986
3895.82 63625.2
3898.69 61511.7
3901.56 63508.3
3904.43 63144.4
3907.3 60020.4
3910.17 59043.6
3913.04 60582
3915.91 63417.2
3918.78 63429.2
3921.66 62978.2
3924.53 61153.6
3927.4 61509.8
3930.27 61675.1
3933.14 61213.3
3936.01 61575
3938.88 60388.4
3941.75 60799.1
3944.62 61225.4
3947.49 60815
3950.36 59937.1
3953.24 60182
3956.11 59624.8
3958.98 59675.2
3961.85 59754.3
3964.72 59355.6
3967.59 59318.5
3970.46 58925.3
3973.33 58729.3
3976.2 58490.1
3979.07 58294.9
3981.94 57996.3
3984.82 57917
3987.69 57677.8
3990.56 57343.9
3993.43 57178.3
3996.3 57016.8
3999.17 56638.5
4002.04 56369.5
4004.91 56259
4007.78 55991.1
4010.65 55762.6
4013.52 55466.1
4016.4 55113.3
4019.27 54939.9
4022.14 54920
4025.01 54718.8
4027.88 54455.8
4030.75 54101.7
4033.62 53780.7
4036.49 53763.3
4039.36 53536.6
4042.23 53218.7
4045.1 53285.5
4047.98 53014.5
4050.85 52699.7
4053.72 52456.9
4056.59 52338.7
4059.46 52287.3
4062.33 51924
4065.2 51728.1
4068.07 51630.4
4070.94 51479.8
4073.81 51332.9
4076.68 51250.8
4079.56 50894
4082.43 50761.8
4085.3 50642.2
4088.17 50426.5
4091.04 50196.6
4093.91 50176.1
4096.78 50018.7
4099.65 49901.4
4102.52 49586.6
4105.39 49502.2
4108.26 49474.1
4111.14 49355.3
4114.01 49059.8
4116.88 48959
4119.75 48885.8
4122.62 48569.9
4125.49 48423.2
4128.36 48400.3
4131.23 48421.3
4134.1 48401.4
4136.97 48131.4
4139.84 47941
4142.72 47917.9
4145.59 47773.1
4148.46 47544.1
4151.33 47577
4154.2 47448.5
4157.07 47212.9
4159.94 47262.7
4162.81 47184.4
4165.68 46990.1
4168.55 46939.7
4171.42 46914.8
4174.3 46758.4
4177.17 46725.3
4180.04 46673.3
4182.91 46676.4
4185.78 46483.1
4188.65 46341.3
4191.52 46255.5
4194.39 46110.8
4197.26 46154.1
4200.13 46174.4
4203 46051.7
4205.87 45965.4
4208.75 45967.2
4211.62 45707.5
4214.49 45882.4
4217.36 45810.8
4220.23 45702.7
4223.1 45717.9
4225.97 45441.4
4228.84 45449.9
4231.71 45523.8
4234.58 45518.3
4237.45 45498.2
4240.33 45477.2
4243.2 45428.9
4246.07 45254.8
4248.94 45186.3
4251.81 45209
4254.68 45226.5
4257.55 45068.2
4260.42 45134.2
4263.29 45135.1
4266.16 45064.5
4269.03 45096.9
4271.91 45063.8
4274.78 44843.4
4277.65 44999.2
4280.52 44879.7
4283.39 44866.9
4286.26 44844.1
4289.13 45021.8
4292 45028.3
4294.87 45029.5
4297.74 44942.7
4300.61 44867.3
4303.49 44741.4
4306.36 44716.4
4309.23 44541.6
4312.1 44512.2
4314.97 44764.8
4317.84 44800.8
4320.71 44579.9
4323.58 44654.3
4326.45 44611
4329.32 44686.3
4332.19 44660.1
4335.07 44439.7
4337.94 44346.8
4340.81 44451.1
4343.68 44466.8
4346.55 44347
4349.42 44419.5
4352.29 44329.4
4355.16 44300.9
4358.03 44252.2
4360.9 44218.8
4363.77 44300.2
4366.65 44432.9
4369.52 44409
4372.39 44191.1
4375.26 44211.9
4378.13 44083.8
4381 43963.4
4383.87 43786.8
4386.74 43742.2
4389.61 43703.8
4392.48 43762.8
4395.35 43815.7
4398.23 43667.2
4401.1 43567.1
4403.97 43591.4
4406.84 43621.5
4409.71 43555.3
4412.58 43473.5
4415.45 43374.3
4418.32 43352.8
4421.19 43303.5
4424.06 43059.5
4426.93 43070.7
4429.81 42995.1
4432.68 43006.7
4435.55 42780.8
4438.42 42750.4
4441.29 42658.1
4444.16 42606.2
4447.03 42471
4449.9 42379.5
4452.77 42320.8
4455.64 42070.8
4458.51 42044.3
4461.39 41763
4464.26 41730.8
4467.13 41621.1
4470 41564.1
4472.87 41167.8
4475.74 41239
4478.61 41198.6
4481.48 40963.7
4484.35 40725.9
4487.22 40619.4
4490.09 40382.1
4492.97 40209.1
4495.84 40040.4
4498.71 39869.8
4501.58 39785.8
4504.45 39829.8
4507.32 39513.8
4510.19 39180.9
4513.06 39019.1
4515.93 38812.3
4518.8 38707.9
4521.67 38574.8
4524.55 38232.8
4527.42 37969
4530.29 37785.8
4533.16 37590.4
4536.03 37310
4538.9 37052.2
4541.77 36855.5
4544.64 36597.3
4547.51 36357.9
4550.38 36214.6
4553.25 35920.7
4556.13 35653.5
4559 35448
4561.87 35080.6
4564.74 34872.3
4567.61 34661.4
4570.48 34335.5
4573.35 34084.7
4576.22 33802.2
4579.09 33492.8
4581.96 33116.2
4584.83 32881
4587.71 32625.6
4590.58 32491.1
4593.45 32145
4596.32 31729.3
4599.19 31446.3
4602.06 31034.7
4604.93 30754.8
4607.8 30501.3
4610.67 30252
4613.54 29815.7
4616.41 29550
4619.29 29156.6
4622.16 28890.2
4625.03 28759.5
4627.9 28439.9
4630.77 27940.6
4633.64 27576.1
4636.51 27274.7
4639.38 26922.2
4642.25 26740.7
4645.12 26499.1
4647.99 25995.7
4650.87 25715.3
4653.74 25444
4656.61 24974.2
4659.48 24604.7
4662.35 24321.1
4665.22 23966.6
4668.09 23587.3
4670.96 23283.3
4673.83 22919
4676.7 22753.2
4679.57 22485.2
4682.45 22107
4685.32 21593.8
4688.19 21285
4691.06 21020.3
4693.93 20819.9
4696.8 20416.9
4699.67 20127.3
4702.54 19758.6
4705.41 19338
4708.28 18902.4
4711.15 18468.1
4714.03 18279.4
4716.9 18069.4
4719.77 17765.7
4722.64 17495.1
4725.51 17199.4
4728.38 16735.3
4731.25 16516.5
4734.12 16317.4
4736.99 15948.6
4739.86 15675.2
4742.73 15347
4745.6 14977.6
4748.48 14727.6
4751.35 14466.6
4754.22 14270.7
4757.09 13856.1
4759.96 13662.2
4762.83 13444.9
4765.7 13048.1
4768.57 12669.4
4771.44 12507.9
4774.31 12287.5
4777.18 11926.2
4780.06 11621.3
4782.93 11328.2
4785.8 11244.3
4788.67 10861.2
4791.54 10598
4794.41 10443.1
4797.28 10081
4800.15 9894.51
4803.02 9597.18
4805.89 9423.89
4808.76 9233.17
4811.64 8976.22
4814.51 8760.29
4817.38 8474.45
4820.25 8332.4
4823.12 8292.63
4825.99 7987.27
4828.86 7819.68
4831.73 7517.99
4834.6 7283.37
4837.47 7215.69
4840.34 6992.28
4843.22 6854.76
4846.09 6675.72
4848.96 6480.54
4851.83 6350.81
4854.7 6140
4857.57 5923.52
4860.44 5549.98
4863.31 5633.71
4866.18 5472.18
4869.05 5441.95
4871.92 5270.9
4874.8 4918.84
4877.67 5004.35
4880.54 4791.23
4883.41 4666.44
4886.28 4459.91
4889.15 4319.51
4892.02 4158.06
4894.89 4087.36
4897.76 4046.21
4900.63 3995.75
4903.5 3754.07
4906.38 3580.64
4909.25 3623.74
4912.12 3588.4
4914.99 3356.09
4917.86 3419.46
4920.73 3163.9
4923.6 2976.63
4926.47 2883.89
4929.34 2861.66
4932.21 2915.63
4935.08 2650.54
4937.96 2489.97
4940.83 2474.86
4943.7 2537.16
4946.57 2369.3
4949.44 2351.04
4952.31 2349.92
4955.18 2291.3
4958.05 2089.09
4960.92 2062.52
4963.79 1883.5
4966.67 2007.96
4969.54 1902.65
4972.41 1737.79
4975.28 1685.66
4978.15 1610.12
4981.02 1602.2
4983.89 1582.26
4986.76 1610.96
4989.63 1485.63
4992.5 1454.18
4995.37 1312.26
4998.24 1339.95
5001.12 1408.84
5003.99 1205.21
5006.86 1251.97
5009.73 1153.6
5012.6 993.418
5015.47 1112.1
5018.34 1044.26
5021.21 1174.49
5024.08 1039.53
5026.95 1053.63
5029.82 781.063
5032.7 884.105
5035.57 927.531
5038.44 822.349
5041.31 808.005
5044.18 744.22
5047.05 594.631
5049.92 535.504
5052.79 737.913
5055.66 808.235
5058.53 729.399
5061.4 585.38
5064.28 633.919
5067.15 592.569
5070.02 383.451
5072.89 403.122
5075.76 508.097
5078.63 488.218
5081.5 343.237
5084.37 462.572
5087.24 481.25
5090.11 423.128
5092.98 465.417
5095.86 345.259
5098.73 320.9
5101.6 388.758
5104.47 460.262
5107.34 346.103
5110.21 418.462
5113.08 339.049
5115.95 347.203
5118.82 338.387
5121.69 442.813
5124.56 348.19
5127.44 288.759
5130.31 267.781
5133.18 331.165
5136.05 369.118
5138.92 463.209
5141.79 486.573
5144.66 380.786
5147.53 332.619
5150.4 415.445
5153.27 341.59
5156.14 348.463
5159.02 413.107
5161.89 339.751
5164.76 328.739
5167.63 416.784
5170.5 406.313
5173.37 453.677
5176.24 414.112
5179.11 351.795
5181.98 398.02
5184.85 342.097
5187.72 347.236
5190.6 434.546
5193.47 518.549
5196.34 472.361
5199.21 347.257
5202.08 426.602
5204.95 492.631
5207.82 508.322
5210.69 410.283
5213.56 532.24
5216.43 415.469
5219.3 518.13
5222.18 510.937
5225.05 627.742
5227.92 447.585
5230.79 396.167
5233.66 458.907
5236.53 536.318
5239.4 468.54
5242.27 576.581
5245.14 500.41
5248.01 423.078
5250.88 483.013
5253.75 495.91
5256.63 430.617
5259.5 541.861
5262.37 479.789
5265.24 516.877
5268.11 516.884
5270.98 597.598
5273.85 538.945
5276.72 508.447
5279.59 580.097
5282.46 534.515
5285.33 536.455
5288.21 624.071
5291.08 559.062
5293.95 539.782
5296.82 529.311
5299.69 610.726
5302.56 558.352
5305.43 591.48
5308.3 582.03
5311.17 729.173
5314.04 721.56
5316.92 603.406
5319.79 564.701
5322.66 667.44
5325.53 695.511
5328.4 696.81
5331.27 601.06
5334.14 671.42
5337.01 669.922
5339.88 676.054
5342.75 580.15
5345.62 584.226
5348.5 622.136
5351.37 626.153
5354.24 599.32
5357.11 520.099
5359.98 682.48
5362.85 617.108
5365.72 713.004
5368.59 751.878
5371.46 683.036
5374.33 736.169
5377.2 730.09
5380.07 751.666
5382.95 661.192
5385.82 537.515
5388.69 562.627
5391.56 561.547
5394.43 508.825
5397.3 665.053
5400.17 710.149
5403.04 627.044
5405.91 599.125
5408.78 672.761
5411.65 583.369
5414.53 595.567
5417.4 558.726
5420.27 722.229
5423.14 791.124
5426.01 701.844
5428.88 636.995
5431.75 671.454
5434.62 553.41
5437.49 550.504
5440.36 592.078
5443.23 559.291
5446.11 488.023
5448.98 539.131
5451.85 474.998
5454.72 625.454
5457.59 631.168
5460.46 439.994
5463.33 458.544
5466.2 588.667
5469.07 621.613
5471.94 691.89
5474.81 590.975
5477.69 565.231
5480.56 408.536
5483.43 538.647
5486.3 508.201
5489.17 506.96
5492.04 583.95
5494.91 643.814
5497.78 511.869
5500.65 462.613
5503.52 406.997
5506.4 439.427
5509.27 527.488
5512.14 576.06
5515.01 517.983
5517.88 653.944
5520.75 567.476
5523.62 513.032
5526.49 640.251
5529.36 624.642
5532.23 495.761
5535.1 511.862
5537.97 420.207
5540.85 449.97
5543.72 467.213
5546.59 600.407
5549.46 591.561
5552.33 513.229
5555.2 536.561
5558.07 397.015
5560.94 441.7
5563.81 614.885
5566.68 578.7
5569.55 496.606
5572.43 475.032
5575.3 505.635
5578.17 598.761
5581.04 579.5
5583.91 654.307
5586.78 644.433
5589.65 437.92
5592.52 423.666
5595.39 507.76
5598.26 444.117
5601.13 549.775
5604.01 568.706
5606.88 580.184
5609.75 517.041
5612.62 464.045
5615.49 428.288
5618.36 531.109
5621.23 557.151
5624.1 478.447
5626.97 453.694
5629.84 485.797
5632.71 568.507
5635.59 549.551
5638.46 548.333
5641.33 540.206
5644.2 430.484
5647.07 499.673
5649.94 606.393
5652.81 553.666
5655.68 476.625
5658.55 559.8
5661.42 503.679
5664.29 486.027
5667.17 546.182
5670.04 607.194
5672.91 538.089
5675.78 472.946
5678.65 539.557
5681.52 515.432
5684.39 411.896
5687.26 459.256
5690.13 414.008
5693 458.478
5695.87 486.78
5698.75 476.407
5701.62 518.939
5704.49 585.168
5707.36 511.991
5710.23 505.561
5713.1 512.952
5715.97 443.04
5718.84 593.392
5721.71 554.064
5724.58 436.925
5727.45 402.944
5730.33 484.529
5733.2 358.109
5736.07 544.817
5738.94 496.095
5741.81 592.566
5744.68 522.358
5747.55 452.838
5750.42 399.037
5753.29 385.27
5756.16 393.363
5759.03 444.023
5761.9 486.144
5764.78 507.171
5767.65 453.422
5770.52 482.616
5773.39 459.428
5776.26 421.555
5779.13 546.382
5782 550.561
5784.87 407.733
5787.74 521.719
5790.61 550.864
5793.48 452.765
5796.36 354.51
5799.23 391.13
5802.1 534.78
5804.97 473.146
5807.84 567.295
5810.71 452.958
5813.58 441.601
5816.45 443.629
5819.32 516.877
5822.19 550.654
5825.06 529.269
5827.94 363.893
5830.81 346.08
5833.68 367.946
5836.55 501.074
5839.42 526.948
5842.29 417.44
5845.16 429.177
5848.03 423.606
5850.9 533.388
5853.77 513.215
5856.65 594.737
5859.52 450.416
5862.39 394.318
5865.26 502.557
5868.13 401.736
5871 345.212
5873.87 482.354
5876.74 398.686
