scanname 扫描263
timestamp 1/1/1970 00:45
scancount 1
laserwavenum 850.5
measurementstate Unknown
scanmode Identification
snr 8.06661 8.06661 8.06661
replacelist 0
peaks 14
726.203 0.173287 0 2.92281 0.000627819
768.26 0.150492 0 5.51078 0.000615483
841.21 0.141441 0 11.2625 0.000608935
887.629 0.138686 0 13.127 0.000534058
924.908 0.151078 0 19.1607 0.000619521
1040.62 0.10412 0 3.69491 0.000100274
1165.57 0.101131 0 1.98973 0.000103269
1343.39 0.267384 0 8.71617 0.000414482
1403.62 0.10466 0 2.43521 0.00011368
1482.28 0.167422 0 0.811683 7.05239e-05
1534.5 0.303736 0 5.97143 0.000376446
1585.24 0.0571468 0 2.68601 0.000117261
3063.21 0.0924447 0 1.04746 8.21211e-05
3076.06 0.0970138 0 2.38854 0.00013939
finalresult No match found 1A1110	9.07365e-25
spectrum 2048
0 -11.2764
2.86447 -12.006
5.72895 -9.08291
8.59342 -7.70744
11.4579 -4.08013
14.3224 0.768948
17.1868 -1.04709
20.0513 3.89351
22.9158 2.39538
25.7803 0.676289
28.6447 2.78364
31.5092 2.96708
34.3737 7.77686
37.2382 0.172272
40.1026 -0.519324
42.9671 4.64145
45.8316 2.66781
48.696 -0.284158
51.5605 -2.46459
54.425 0.12234
57.2895 8.99205
60.1539 2.95442
63.0184 0.900298
65.8829 4.82026
68.7474 7.22821
71.6118 4.19147
74.4763 3.05114
77.3408 3.30766
80.2053 1.46514
83.0697 2.15952
85.9342 3.91325
88.7987 4.55933
91.6632 0.948736
94.5276 -0.416932
97.3921 1.20363
100.257 10.3839
103.121 5.53031
105.986 4.73329
108.85 2.17345
111.714 4.67039
114.579 2.37439
117.443 3.68211
120.308 3.76317
123.172 4.28071
126.037 6.58876
128.901 7.29871
131.766 1.04506
134.63 -0.942238
137.495 3.70912
140.359 5.71927
143.224 2.59307
146.088 3.25408
148.953 3.66841
151.817 2.88595
154.682 3.1266
157.546 8.45437
160.411 9.2506
163.275 8.1559
166.139 0.884901
169.004 4.44474
171.868 5.78275
174.733 7.1361
177.597 1.41187
180.462 4.38492
183.326 3.48068
186.191 5.0071
189.055 -0.264733
191.92 -2.45009
194.784 2.45539
197.649 1.77709
200.513 1.81547
203.378 4.74586
206.242 3.6617
209.107 4.81549
211.971 4.64095
214.836 0.890244
217.7 9.16668
220.564 3.64283
223.429 2.62909
226.293 2.07621
229.158 3.39029
232.022 2.81771
234.887 1.93276
237.751 -0.906381
240.616 4.52052
243.48 2.87698
246.345 2.68762
249.209 8.28466
252.074 8.89691
254.938 10.9217
257.803 4.15217
260.667 1.53107
263.532 1.76335
266.396 2.46144
269.26 8.84205
272.125 3.12051
274.989 5.09895
277.854 4.41904
280.718 4.7968
283.583 -0.385824
286.447 5.87177
289.312 4.1057
292.176 2.25948
295.041 -0.391625
297.905 3.76686
300.77 3.37983
303.634 1.33924
306.499 1.26563
309.363 2.72564
312.228 7.12663
315.092 4.35701
317.957 1.64121
320.821 3.3403
323.686 3.06495
326.55 3.73779
329.414 1.48345
332.279 0.0815523
335.143 1.36141
338.008 7.08626
340.872 11.9337
343.737 3.85032
346.601 4.55023
349.466 2.9607
352.33 0.571167
355.195 3.84596
358.059 6.21825
360.924 10.5188
363.788 3.73467
366.653 6.6346
369.517 6.40731
372.382 6.04734
375.246 4.97464
378.111 -0.923338
380.975 3.51481
383.839 4.30417
386.704 -0.501745
389.568 1.9998
392.433 10.1214
395.297 3.64048
398.162 3.03662
401.026 4.32031
403.891 6.19218
406.755 8.15391
409.62 6.70247
412.484 2.08709
415.349 2.89527
418.213 1.78372
421.078 -2.21744
423.942 1.69619
426.807 1.53737
429.671 2.11043
432.535 3.02124
435.4 7.2556
438.264 5.90066
441.129 5.78693
443.993 4.20248
446.858 2.51996
449.722 4.10052
452.587 6.19905
455.451 7.14918
458.316 -0.68548
461.18 2.1055
464.045 5.90773
466.909 4.66901
469.774 6.24844
472.638 8.94535
475.503 12.6685
478.367 8.48619
481.232 0.811082
484.096 3.3666
486.961 4.40289
489.825 5.76927
492.689 4.80128
495.554 2.98299
498.418 1.55134
501.283 1.46662
504.147 4.64334
507.012 6.56115
509.876 7.36902
512.741 2.85111
515.605 -0.730243
518.47 0.694811
521.334 2.91025
524.199 4.65899
527.063 3.19419
529.928 4.97664
532.792 9.06134
535.657 6.313
538.521 4.53089
541.385 5.35944
544.25 4.69023
547.115 8.39601
549.979 1.54041
552.843 3.33306
555.708 8.83223
558.572 3.16281
561.437 -2.27581
564.301 2.41417
567.166 6.50895
570.03 5.62868
572.895 7.91186
575.759 2.86657
578.624 3.86951
581.488 5.44401
584.353 5.38825
587.217 4.14033
590.082 4.53651
592.946 2.81885
595.81 3.1823
598.675 3.70711
601.539 2.68522
604.404 1.80092
607.268 0.256589
610.133 0.957952
612.997 1.42145
615.862 1.50981
618.726 1.84109
621.591 1.37727
624.455 1.68685
627.32 1.49305
630.184 1.7352
633.049 1.57128
635.913 1.70247
638.778 1.72563
641.642 0.918737
644.507 1.20489
647.371 0.799244
650.235 0.687131
653.1 0.642483
655.964 0.723045
658.829 0.939887
661.693 0.779016
664.558 0.635744
667.422 0.580322
670.287 0.951105
673.151 0.749808
676.016 0.769257
678.88 0.82137
681.745 0.869116
684.609 0.944308
687.474 0.690295
690.338 0.789563
693.203 0.770792
696.067 0.810698
698.932 0.996402
701.796 0.918733
704.66 1.00907
707.525 1.0021
710.389 1.03635
713.254 1.05781
716.118 1.16089
718.983 1.33098
721.847 1.47764
724.712 1.72871
727.576 1.91516
730.441 1.81238
733.305 1.19864
736.17 0.904473
739.034 0.855226
741.899 0.837153
744.763 0.873787
747.628 0.944196
750.492 1.00199
753.357 1.17017
756.221 1.20169
759.086 1.06229
761.95 1.04906
764.814 1.30907
767.679 1.64555
770.543 2.05097
773.408 1.22017
776.272 0.634606
779.137 0.636327
782.001 0.602522
784.866 0.638855
787.73 0.624965
790.595 0.675818
793.459 0.720913
796.324 0.733515
799.188 0.763222
802.053 0.750085
804.917 0.71176
807.782 0.688143
810.646 0.793045
813.51 0.76964
816.375 0.78032
819.239 0.821115
822.104 0.821578
824.968 0.892255
827.833 0.858648
830.697 0.921476
833.562 0.955913
836.426 1.07486
839.291 1.20301
842.155 1.48425
845.02 1.8285
847.884 1.0556
850.749 0.603714
853.613 0.541806
856.478 0.593574
859.342 0.627792
862.207 0.629998
865.071 0.704227
867.935 0.680419
870.8 0.727671
873.664 0.785072
876.529 0.8505
879.393 0.895409
882.258 1.047
885.122 1.35803
887.987 1.66962
890.851 1.47586
893.716 0.969487
896.58 0.808355
899.445 0.760282
902.309 0.77324
905.174 0.802854
908.038 0.793024
910.903 0.81447
913.767 0.88122
916.632 0.995568
919.496 1.14511
922.36 1.38591
925.225 1.64567
928.089 1.66508
930.954 1.28518
933.818 0.822422
936.683 0.70149
939.547 0.670588
942.412 0.622912
945.276 0.628161
948.141 0.6273
951.005 0.647742
953.87 0.642242
956.734 0.650032
959.599 0.632537
962.463 0.640201
965.328 0.667165
968.192 0.670597
971.057 0.68618
973.921 0.680927
976.785 0.703884
979.65 0.691086
982.514 0.711106
985.379 0.729192
988.243 0.724454
991.108 0.736954
993.972 0.735182
996.837 0.747313
999.701 0.76011
1002.57 0.786647
1005.43 0.792132
1008.29 0.796333
1011.16 0.81755
1014.02 0.830588
1016.89 0.843101
1019.75 0.838601
1022.62 0.855575
1025.48 0.880538
1028.35 0.900093
1031.21 0.943998
1034.07 0.984847
1036.94 1.0278
1039.8 1.04895
1042.67 1.03721
1045.53 1.02882
1048.4 0.970126
1051.26 0.926982
1054.13 0.882887
1056.99 0.859709
1059.86 0.829621
1062.72 0.81944
1065.58 0.821433
1068.45 0.786078
1071.31 0.802019
1074.18 0.795189
1077.04 0.808803
1079.91 0.826564
1082.77 0.806635
1085.64 0.815718
1088.5 0.817115
1091.36 0.80803
1094.23 0.80796
1097.09 0.84665
1099.96 0.793543
1102.82 0.802333
1105.69 0.806538
1108.55 0.818929
1111.42 0.837288
1114.28 0.838527
1117.14 0.830739
1120.01 0.823609
1122.87 0.837665
1125.74 0.82664
1128.6 0.842119
1131.47 0.844457
1134.33 0.8497
1137.2 0.870163
1140.06 0.877223
1142.92 0.900513
1145.79 0.895171
1148.65 0.871696
1151.52 0.909027
1154.38 0.904999
1157.25 0.923004
1160.11 0.947014
1162.98 0.985068
1165.84 1.0602
1168.71 1.0372
1171.57 0.955352
1174.43 0.887432
1177.3 0.890134
1180.16 0.89301
1183.03 0.915201
1185.89 0.931968
1188.76 0.92874
1191.62 0.929308
1194.49 0.937768
1197.35 0.945726
1200.21 0.948309
1203.08 0.953912
1205.94 0.929948
1208.81 0.952391
1211.67 0.974447
1214.54 0.986858
1217.4 1.02172
1220.27 1.0299
1223.13 1.07612
1225.99 1.06026
1228.86 1.0367
1231.72 1.03987
1234.59 1.0668
1237.45 1.13031
1240.32 1.11413
1243.18 1.07532
1246.05 1.04207
1248.91 1.05119
1251.78 1.08911
1254.64 1.09339
1257.5 1.11497
1260.37 1.14166
1263.23 1.17981
1266.1 1.19143
1268.96 1.20114
1271.83 1.21521
1274.69 1.21494
1277.56 1.26112
1280.42 1.28281
1283.28 1.31837
1286.15 1.38117
1289.01 1.40745
1291.88 1.45885
1294.74 1.49622
1297.61 1.52591
1300.47 1.56172
1303.34 1.60735
1306.2 1.62931
1309.06 1.67558
1311.93 1.74836
1314.79 1.76747
1317.66 1.85011
1320.52 1.90396
1323.39 1.99549
1326.25 2.11014
1329.12 2.23305
1331.98 2.35924
1334.84 2.47586
1337.71 2.5032
1340.57 2.48318
1343.44 2.59912
1346.3 2.69606
1349.17 2.69765
1352.03 2.42714
1354.9 1.99966
1357.76 1.81567
1360.62 1.7785
1363.49 1.82027
1366.35 1.78326
1369.22 1.60281
1372.08 1.3327
1374.95 1.13309
1377.81 1.16396
1380.68 1.24961
1383.54 1.21555
1386.41 1.0329
1389.27 0.92293
1392.13 0.923916
1395 0.93885
1397.86 0.98083
1400.73 1.02483
1403.59 1.07491
1406.46 1.06358
1409.32 1.00358
1412.19 0.949098
1415.05 0.897634
1417.91 0.892265
1420.78 0.85563
1423.64 0.863146
1426.51 0.861913
1429.37 0.873364
1432.24 0.915484
1435.1 0.934193
1437.97 0.996423
1440.83 1.03229
1443.69 1.09827
1446.56 1.12483
1449.42 1.2036
1452.29 1.27365
1455.15 1.26962
1458.02 1.33897
1460.88 1.40069
1463.75 1.4182
1466.61 1.48752
1469.47 1.59441
1472.34 1.61127
1475.2 1.66167
1478.07 1.63644
1480.93 1.62598
1483.8 1.69061
1486.66 1.67429
1489.53 1.69514
1492.39 1.83123
1495.26 1.87043
1498.12 1.99671
1500.98 2.12948
1503.85 2.20648
1506.71 2.15346
1509.58 2.34111
1512.44 2.44351
1515.31 2.51254
1518.17 2.63373
1521.04 2.59927
1523.9 2.74775
1526.76 2.78471
1529.63 2.94374
1532.49 2.99387
1535.36 3.14853
1538.22 3.08685
1541.09 2.72955
1543.95 2.62521
1546.82 2.47438
1549.68 2.21604
1552.54 1.98509
1555.41 1.72912
1558.27 1.45012
1561.14 1.45344
1564 1.38313
1566.87 1.23587
1569.73 1.02864
1572.6 0.833674
1575.46 0.58829
1578.33 0.510325
1581.19 0.521983
1584.05 0.567133
1586.92 0.63491
1589.78 0.608659
1592.65 0.448682
1595.51 0.391773
1598.38 0.339408
1601.24 0.322013
1604.11 0.346488
1606.97 0.314869
1609.83 0.324327
1612.7 0.32147
1615.56 0.291811
1618.43 0.285826
1621.29 0.285542
1624.16 0.296738
1627.02 0.312271
1629.89 0.30003
1632.75 0.298341
1635.61 0.291081
1638.48 0.293661
1641.34 0.289196
1644.21 0.324055
1647.07 0.308726
1649.94 0.32051
1652.8 0.258515
1655.67 0.294694
1658.53 0.298039
1661.39 0.291473
1664.26 0.297443
1667.12 0.29913
1669.99 0.309422
1672.85 0.308447
1675.72 0.295272
1678.58 0.333462
1681.45 0.303263
1684.31 0.331174
1687.18 0.316997
1690.04 0.32885
1692.9 0.319617
1695.77 0.317554
1698.63 0.316079
1701.5 0.328342
1704.36 0.342883
1707.23 0.334361
1710.09 0.335322
1712.96 0.325258
1715.82 0.345954
1718.68 0.32565
1721.55 0.335887
1724.41 0.356351
1727.28 0.336759
1730.14 0.349645
1733.01 0.349096
1735.87 0.361294
1738.74 0.351012
1741.6 0.325815
1744.46 0.333097
1747.33 0.338671
1750.19 0.336264
1753.06 0.356037
1755.92 0.356715
1758.79 0.354836
1761.65 0.333389
1764.52 0.369912
1767.38 0.350563
1770.24 0.35542
1773.11 0.327461
1775.97 0.352825
1778.84 0.369489
1781.7 0.368675
1784.57 0.3794
1787.43 0.355701
1790.3 0.348511
1793.16 0.339912
1796.02 0.354353
1798.89 0.353548
1801.75 0.371776
1804.62 0.375674
1807.48 0.351718
1810.35 0.370607
1813.21 0.368176
1816.08 0.374803
1818.94 0.38661
1821.81 0.384795
1824.67 0.407392
1827.53 0.431994
1830.4 0.438872
1833.26 0.411056
1836.13 0.375536
1838.99 0.382787
1841.86 0.360118
1844.72 0.365577
1847.59 0.376042
1850.45 0.37637
1853.31 0.351642
1856.18 0.350638
1859.04 0.358448
1861.91 0.361497
1864.77 0.360226
1867.64 0.344272
1870.5 0.361068
1873.37 0.356865
1876.23 0.372933
1879.09 0.398979
1881.96 0.378866
1884.82 0.365172
1887.69 0.35784
1890.55 0.344761
1893.42 0.367864
1896.28 0.376735
1899.15 0.348844
1902.01 0.32744
1904.87 0.378021
1907.74 0.380259
1910.6 0.382194
1913.47 0.365531
1916.33 0.348333
1919.2 0.361085
1922.06 0.351838
1924.93 0.344921
1927.79 0.324294
1930.66 0.359717
1933.52 0.302253
1936.38 0.340086
1939.25 0.342601
1942.11 0.357559
1944.98 0.328659
1947.84 0.300744
1950.71 0.316984
1953.57 0.321917
1956.44 0.333217
1959.3 0.342172
1962.16 0.338378
1965.03 0.318156
1967.89 0.304755
1970.76 0.326087
1973.62 0.328491
1976.49 0.334953
1979.35 0.276289
1982.22 0.325344
1985.08 0.345711
1987.94 0.348318
1990.81 0.330514
1993.67 0.327437
1996.54 0.304309
1999.4 0.326116
2002.27 0.322454
2005.13 0.304382
2008 0.279429
2010.86 0.28885
2013.72 0.274987
2016.59 0.289206
2019.45 0.366107
2022.32 0.310558
2025.18 0.338208
2028.05 0.279029
2030.91 0.302639
2033.78 0.295783
2036.64 0.322429
2039.51 0.308871
2042.37 0.302862
2045.23 0.350687
2048.1 0.358553
2050.96 0.381171
2053.83 0.35074
2056.69 0.349505
2059.56 0.331955
2062.42 0.342123
2065.29 0.367096
2068.15 0.368739
2071.01 0.387467
2073.88 0.347859
2076.74 0.365295
2079.61 0.364831
2082.47 0.357412
2085.34 0.384911
2088.2 0.363822
2091.07 0.374463
2093.93 0.391869
2096.79 0.369564
2099.66 0.383925
2102.52 0.389844
2105.39 0.379035
2108.25 0.368344
2111.12 0.391033
2113.98 0.386302
2116.85 0.389976
2119.71 0.411329
2122.58 0.385058
2125.44 0.382767
2128.3 0.371218
2131.17 0.361178
2134.03 0.365894
2136.9 0.384784
2139.76 0.359399
2142.63 0.367282
2145.49 0.361118
2148.36 0.373334
2151.22 0.359837
2154.08 0.261721
2156.95 0.308219
2159.81 0.333412
2162.68 0.330391
2165.54 0.319765
2168.41 0.315485
2171.27 0.353847
2174.14 0.364536
2177 0.387711
2179.86 0.329336
2182.73 0.326968
2185.59 0.331665
2188.46 0.355871
2191.32 0.389518
2194.19 0.367804
2197.05 0.386115
2199.92 0.379629
2202.78 0.376494
2205.64 0.37048
2208.51 0.382092
2211.37 0.400871
2214.24 0.385468
2217.1 0.374024
2219.97 0.388109
2222.83 0.397398
2225.7 0.406133
2228.56 0.397374
2231.43 0.406235
2234.29 0.399479
2237.15 0.428652
2240.02 0.426369
2242.88 0.412686
2245.75 0.421507
2248.61 0.398271
2251.48 0.454064
2254.34 0.413594
2257.21 0.423196
2260.07 0.43335
2262.93 0.439403
2265.8 0.443307
2268.66 0.447813
2271.53 0.465855
2274.39 0.45729
2277.26 0.454619
2280.12 0.43568
2282.99 0.478592
2285.85 0.485387
2288.71 0.493597
2291.58 0.485257
2294.44 0.489264
2297.31 0.470039
2300.17 0.506208
2303.04 0.5205
2305.9 0.524033
2308.77 0.513772
2311.63 0.518925
2314.49 0.529999
2317.36 0.546578
2320.22 0.531506
2323.09 0.539913
2325.95 0.550489
2328.82 0.536838
2331.68 0.541037
2334.55 0.562359
2337.41 0.565888
2340.28 0.553278
2343.14 0.530081
2346 0.540926
2348.87 0.549265
2351.73 0.562966
2354.6 0.549304
2357.46 0.54522
2360.33 0.537816
2363.19 0.539973
2366.06 0.522934
2368.92 0.518692
2371.78 0.534094
2374.65 0.524189
2377.51 0.529114
2380.38 0.522448
2383.24 0.520078
2386.11 0.510738
2388.97 0.509972
2391.84 0.523917
2394.7 0.5189
2397.56 0.527212
2400.43 0.520824
2403.29 0.511859
2406.16 0.499145
2409.02 0.505503
2411.89 0.514403
2414.75 0.510821
2417.62 0.526696
2420.48 0.496837
2423.34 0.497782
2426.21 0.516324
2429.07 0.517609
2431.94 0.522636
2434.8 0.520916
2437.67 0.514991
2440.53 0.517843
2443.4 0.528957
2446.26 0.512638
2449.12 0.517381
2451.99 0.521002
2454.85 0.518462
2457.72 0.525025
2460.58 0.520418
2463.45 0.518943
2466.31 0.524364
2469.18 0.535376
2472.04 0.538905
2474.91 0.514548
2477.77 0.528365
2480.63 0.507812
2483.5 0.519809
2486.36 0.525413
2489.23 0.532983
2492.09 0.540852
2494.96 0.504533
2497.82 0.528319
2500.69 0.505204
2503.55 0.516921
2506.41 0.549318
2509.28 0.539331
2512.14 0.522939
2515.01 0.523569
2517.87 0.541288
2520.74 0.512383
2523.6 0.52729
2526.47 0.539521
2529.33 0.518858
2532.19 0.528292
2535.06 0.539602
2537.92 0.547106
2540.79 0.532366
2543.65 0.506869
2546.52 0.506369
2549.38 0.496476
2552.25 0.53021
2555.11 0.551515
2557.98 0.514648
2560.84 0.509502
2563.7 0.503537
2566.57 0.508292
2569.43 0.542698
2572.3 0.54766
2575.16 0.533039
2578.03 0.548866
2580.89 0.524802
2583.76 0.529374
2586.62 0.548757
2589.48 0.557418
2592.35 0.560907
2595.21 0.554213
2598.08 0.557355
2600.94 0.548248
2603.81 0.557265
2606.67 0.566424
2609.54 0.571963
2612.4 0.568616
2615.26 0.567717
2618.13 0.578192
2620.99 0.57681
2623.86 0.580021
2626.72 0.581346
2629.59 0.600967
2632.45 0.601937
2635.32 0.59495
2638.18 0.602974
2641.04 0.597592
2643.91 0.603054
2646.77 0.588577
2649.64 0.588259
2652.5 0.591068
2655.37 0.578246
2658.23 0.593854
2661.1 0.589525
2663.96 0.607089
2666.82 0.603994
2669.69 0.608157
2672.55 0.594561
2675.42 0.600468
2678.28 0.611178
2681.15 0.5992
2684.01 0.608181
2686.88 0.621701
2689.74 0.613678
2692.61 0.61526
2695.47 0.617313
2698.33 0.61417
2701.2 0.616231
2704.06 0.625797
2706.93 0.61796
2709.79 0.606609
2712.66 0.615469
2715.52 0.607167
2718.39 0.604326
2721.25 0.599212
2724.11 0.602711
2726.98 0.61722
2729.84 0.613563
2732.71 0.597757
2735.57 0.591089
2738.44 0.611506
2741.3 0.602821
2744.17 0.603572
2747.03 0.598838
2749.89 0.594239
2752.76 0.598869
2755.62 0.596327
2758.49 0.592309
2761.35 0.597374
2764.22 0.607622
2767.08 0.611624
2769.95 0.623494
2772.81 0.611507
2775.68 0.624086
2778.54 0.621254
2781.4 0.593232
2784.27 0.61353
2787.13 0.631364
2790 0.624413
2792.86 0.619946
2795.73 0.600837
2798.59 0.606902
2801.46 0.622133
2804.32 0.621579
2807.18 0.620704
2810.05 0.610527
2812.91 0.612226
2815.78 0.629352
2818.64 0.624803
2821.51 0.635291
2824.37 0.640408
2827.24 0.622729
2830.1 0.634084
2832.96 0.635486
2835.83 0.638021
2838.69 0.640603
2841.56 0.642996
2844.42 0.645449
2847.29 0.643598
2850.15 0.644834
2853.02 0.65168
2855.88 0.656725
2858.74 0.64814
2861.61 0.650348
2864.47 0.670922
2867.34 0.674261
2870.2 0.683878
2873.07 0.697512
2875.93 0.700935
2878.8 0.709116
2881.66 0.70974
2884.53 0.710782
2887.39 0.695983
2890.25 0.697209
2893.12 0.682373
2895.98 0.690071
2898.85 0.707831
2901.71 0.707791
2904.58 0.71332
2907.44 0.702317
2910.31 0.720759
2913.17 0.693681
2916.03 0.671076
2918.9 0.664966
2921.76 0.634569
2924.63 0.637953
2927.49 0.662573
2930.36 0.661639
2933.22 0.644106
2936.09 0.624966
2938.95 0.636234
2941.81 0.648267
2944.68 0.658505
2947.54 0.642102
2950.41 0.641086
2953.27 0.641226
2956.14 0.631115
2959 0.637665
2961.87 0.626859
2964.73 0.630933
2967.59 0.654833
2970.46 0.625343
2973.32 0.640243
2976.19 0.645089
2979.05 0.638693
2981.92 0.635155
2984.78 0.650776
2987.65 0.634496
2990.51 0.647484
2993.38 0.642057
2996.24 0.644346
2999.1 0.649102
3001.97 0.653012
3004.83 0.681084
3007.7 0.662349
3010.56 0.668675
3013.43 0.700227
3016.29 0.680043
3019.16 0.681742
3022.02 0.679407
3024.88 0.691154
3027.75 0.686759
3030.61 0.689091
3033.48 0.678991
3036.34 0.694713
3039.21 0.703194
3042.07 0.729114
3044.94 0.74335
3047.8 0.737113
3050.66 0.792333
3053.53 0.823202
3056.39 0.880821
3059.26 0.944358
3062.12 0.938516
3064.99 0.900631
3067.85 0.890519
3070.72 0.890475
3073.58 0.95425
3076.44 1.00446
3079.31 0.999024
3082.17 0.900706
3085.04 0.829924
3087.9 0.735777
3090.77 0.703856
3093.63 0.66025
3096.5 0.636643
3099.36 0.647454
3102.23 0.624036
3105.09 0.629627
3107.95 0.610113
3110.82 0.590197
3113.68 0.595509
3116.55 0.610508
3119.41 0.608766
3122.28 0.582977
3125.14 0.58051
3128.01 0.584393
3130.87 0.582511
3133.73 0.59367
3136.6 0.614078
3139.46 0.59178
3142.33 0.592076
3145.19 0.610044
3148.06 0.598893
3150.92 0.5994
3153.79 0.616978
3156.65 0.591631
3159.51 0.60741
3162.38 0.603567
3165.24 0.612775
3168.11 0.593903
3170.97 0.602259
3173.84 0.598543
3176.7 0.59306
3179.57 0.617111
3182.43 0.606543
3185.29 0.595507
3188.16 0.594074
3191.02 0.565066
3193.89 0.584534
3196.75 0.591804
3199.62 0.593698
3202.48 0.600887
3205.35 0.615733
3208.21 0.592819
3211.07 0.598613
3213.94 0.60916
3216.8 0.600445
3219.67 0.630174
3222.53 0.596146
3225.4 0.612972
3228.26 0.605318
3231.13 0.619483
3233.99 0.619954
3236.86 0.614619
3239.72 0.621208
3242.58 0.617176
3245.45 0.608849
3248.31 0.596282
3251.18 0.606327
3254.04 0.60858
3256.91 0.623793
3259.77 0.611704
3262.64 0.615781
3265.5 0.596112
3268.36 0.595273
3271.23 0.614444
3274.09 0.613108
3276.96 0.616099
3279.82 0.639198
3282.69 0.616769
3285.55 0.62588
3288.42 0.630626
3291.28 0.636677
3294.14 0.611705
3297.01 0.603361
3299.87 0.58722
3302.74 0.609628
3305.6 0.644508
3308.47 0.602503
3311.33 0.61682
3314.2 0.632285
3317.06 0.631423
3319.93 0.632083
3322.79 0.629649
3325.65 0.624456
3328.52 0.587061
3331.38 0.612317
3334.25 0.619603
3337.11 0.629963
3339.98 0.652903
3342.84 0.605989
3345.71 0.623432
3348.57 0.625191
3351.43 0.651599
3354.3 0.64518
3357.16 0.65073
3360.03 0.635276
3362.89 0.618997
3365.76 0.60275
3368.62 0.627308
3371.49 0.644205
3374.35 0.62593
3377.21 0.615452
3380.08 0.616885
3382.94 0.623307
3385.81 0.638095
3388.67 0.631159
3391.54 0.619467
3394.4 0.627422
3397.27 0.645643
3400.13 0.643004
3402.99 0.624534
3405.86 0.629993
3408.72 0.646829
3411.59 0.641023
3414.45 0.614866
3417.32 0.604834
3420.18 0.616207
3423.05 0.638986
3425.91 0.652177
3428.77 0.640248
3431.64 0.630132
3434.5 0.646646
3437.37 0.639863
3440.23 0.612964
3443.1 0.643607
3445.96 0.651381
3448.83 0.664269
3451.69 0.660843
3454.56 0.621714
3457.42 0.64845
3460.28 0.63974
3463.15 0.611094
3466.01 0.655127
3468.88 0.616156
3471.74 0.673988
3474.61 0.633781
3477.47 0.649472
3480.34 0.664678
3483.2 0.648666
3486.06 0.662493
3488.93 0.605365
3491.79 0.662144
3494.66 0.666345
3497.52 0.65996
3500.39 0.64128
3503.25 0.642752
3506.12 0.639826
3508.98 0.621398
3511.84 0.648428
3514.71 0.653931
3517.57 0.655587
3520.44 0.636602
3523.3 0.619351
3526.17 0.643217
3529.03 0.661056
3531.9 0.655238
3534.76 0.632595
3537.62 0.648105
3540.49 0.636051
3543.35 0.635668
3546.22 0.655425
3549.08 0.624513
3551.95 0.661429
3554.81 0.649332
3557.68 0.653291
3560.54 0.62945
3563.41 0.651698
3566.27 0.66813
3569.13 0.651692
3572 0.652123
3574.86 0.661738
3577.73 0.695509
3580.59 0.61579
3583.46 0.598654
3586.32 0.647226
3589.19 0.651975
3592.05 0.663277
3594.91 0.647456
3597.78 0.623922
3600.64 0.649767
3603.51 0.63279
3606.37 0.643755
3609.24 0.662283
3612.1 0.617311
3614.97 0.671078
3617.83 0.682597
3620.69 0.657035
3623.56 0.638185
3626.42 0.641027
3629.29 0.643792
3632.15 0.677353
3635.02 0.673021
3637.88 0.677495
3640.75 0.667287
3643.61 0.670055
3646.47 0.646715
3649.34 0.668475
3652.2 0.664029
3655.07 0.639332
3657.93 0.682169
3660.8 0.653188
3663.66 0.671361
3666.53 0.687944
3669.39 0.634328
3672.26 0.666208
3675.12 0.663399
3677.98 0.671122
3680.85 0.666622
3683.71 0.635486
3686.58 0.680202
3689.44 0.665799
3692.31 0.674889
3695.17 0.682878
3698.04 0.686704
3700.9 0.670254
3703.76 0.669233
3706.63 0.658462
3709.49 0.679063
3712.36 0.658353
3715.22 0.669055
3718.09 0.682654
3720.95 0.651903
3723.82 0.630414
3726.68 0.653312
3729.54 0.694881
3732.41 0.695318
3735.27 0.695361
3738.14 0.670981
3741 0.671326
3743.87 0.628728
3746.73 0.671378
3749.6 0.710185
3752.46 0.675953
3755.32 0.661497
3758.19 0.672191
3761.05 0.674296
3763.92 0.648394
3766.78 0.673858
3769.65 0.634158
3772.51 0.684306
3775.38 0.687805
3778.24 0.67843
3781.11 0.637816
3783.97 0.665319
3786.83 0.675142
3789.7 0.689365
3792.56 0.707552
3795.43 0.674468
3798.29 0.693658
3801.16 0.663154
3804.02 0.664435
3806.89 0.676877
3809.75 0.694504
3812.61 0.715387
3815.48 0.637696
3818.34 0.652105
3821.21 0.692013
3824.07 0.687483
3826.94 0.705399
3829.8 0.708368
3832.67 0.673265
3835.53 0.671136
3838.39 0.719907
3841.26 0.686255
3844.12 0.682097
3846.99 0.690095
3849.85 0.673166
3852.72 0.662849
3855.58 0.696066
3858.45 0.706917
3861.31 0.667922
3864.17 0.690824
3867.04 0.695227
3869.9 0.672194
3872.77 0.663317
3875.63 0.659772
3878.5 0.674119
3881.36 0.676708
3884.23 0.665469
3887.09 0.667919
3889.96 0.653317
3892.82 0.710016
3895.68 0.708175
3898.55 0.659895
3901.41 0.70148
3904.28 0.702875
3907.14 0.685275
3910.01 0.67249
3912.87 0.683454
3915.74 0.6871
3918.6 0.702
3921.46 0.679877
3924.33 0.71338
3927.19 0.676284
3930.06 0.688196
3932.92 0.713225
3935.79 0.702685
3938.65 0.731877
3941.52 0.68444
3944.38 0.692826
3947.24 0.670298
3950.11 0.669724
3952.97 0.684627
3955.84 0.669308
3958.7 0.685482
3961.57 0.682172
3964.43 0.68966
3967.3 0.697419
3970.16 0.684481
3973.02 0.690445
3975.89 0.633043
3978.75 0.686643
3981.62 0.699514
3984.48 0.695392
3987.35 0.701926
3990.21 0.699289
3993.08 0.71055
3995.94 0.694497
3998.81 0.713888
4001.67 0.666535
4004.53 0.676625
4007.4 0.720679
4010.26 0.737743
4013.13 0.700579
4015.99 0.686743
4018.86 0.741776
4021.72 0.695726
4024.59 0.686237
4027.45 0.709947
4030.31 0.692472
4033.18 0.700843
4036.04 0.653546
4038.91 0.68626
4041.77 0.702984
4044.64 0.748902
4047.5 0.750906
4050.37 0.715013
4053.23 0.685897
4056.09 0.714769
4058.96 0.720933
4061.82 0.664291
4064.69 0.722257
4067.55 0.738808
4070.42 0.716482
4073.28 0.726967
4076.15 0.726135
4079.01 0.717509
4081.88 0.67518
4084.74 0.741352
4087.6 0.689576
4090.47 0.7073
4093.33 0.71601
4096.2 0.677645
4099.06 0.722415
4101.93 0.708109
4104.79 0.660519
4107.66 0.69783
4110.52 0.750553
4113.38 0.719532
4116.25 0.750677
4119.11 0.738626
4121.98 0.681268
4124.84 0.732564
4127.71 0.683608
4130.57 0.695339
4133.44 0.690182
4136.3 0.687829
4139.16 0.729566
4142.03 0.746178
4144.89 0.732017
4147.76 0.734743
4150.62 0.711907
4153.49 0.723171
4156.35 0.70346
4159.22 0.662929
4162.08 0.69498
4164.94 0.7279
4167.81 0.71416
4170.67 0.720771
4173.54 0.73768
4176.4 0.669121
4179.27 0.750058
4182.13 0.742093
4185 0.774459
4187.86 0.776432
4190.73 0.733872
4193.59 0.668892
4196.45 0.714948
4199.32 0.715061
4202.18 0.724183
4205.05 0.731238
4207.91 0.695491
4210.78 0.727259
4213.64 0.706933
4216.5 0.739433
4219.37 0.733556
4222.23 0.710585
4225.1 0.739312
4227.96 0.756776
4230.83 0.760035
4233.69 0.769005
4236.56 0.720695
4239.42 0.707564
4242.29 0.662381
4245.15 0.705116
4248.01 0.736181
4250.88 0.740809
4253.74 0.728579
4256.61 0.709225
4259.47 0.721623
4262.34 0.712432
4265.2 0.758886
4268.07 0.70064
4270.93 0.706222
4273.79 0.72117
4276.66 0.717964
4279.52 0.731262
4282.39 0.747504
4285.25 0.722498
4288.12 0.675673
4290.98 0.759145
4293.85 0.781736
4296.71 0.718708
4299.57 0.76357
4302.44 0.704881
4305.3 0.712532
4308.17 0.779425
4311.03 0.745986
4313.9 0.753378
4316.76 0.72414
4319.63 0.737097
4322.49 0.75907
4325.36 0.729461
4328.22 0.685224
4331.08 0.737892
4333.95 0.766801
4336.81 0.718322
4339.68 0.723043
4342.54 0.711403
4345.41 0.748449
4348.27 0.710872
4351.14 0.750587
4354 0.713727
4356.86 0.75861
4359.73 0.776285
4362.59 0.756586
4365.46 0.733177
4368.32 0.714033
4371.19 0.716126
4374.05 0.725869
4376.92 0.713169
4379.78 0.733718
4382.64 0.731523
4385.51 0.718108
4388.37 0.695938
4391.24 0.743068
4394.1 0.715847
4396.97 0.718493
4399.83 0.729033
4402.7 0.702155
4405.56 0.757019
4408.43 0.751627
4411.29 0.763385
4414.15 0.722806
4417.02 0.735953
4419.88 0.750769
4422.75 0.77672
4425.61 0.736334
4428.48 0.723655
4431.34 0.7508
4434.21 0.764927
4437.07 0.73645
4439.93 0.752811
4442.8 0.702331
4445.66 0.690383
4448.53 0.70859
4451.39 0.788128
4454.26 0.745397
4457.12 0.713509
4459.99 0.739681
4462.85 0.759787
4465.71 0.78288
4468.58 0.761883
4471.44 0.73655
4474.31 0.711257
4477.17 0.738049
4480.04 0.724887
4482.9 0.705322
4485.77 0.705387
4488.63 0.730027
4491.49 0.760753
4494.36 0.773641
4497.22 0.824748
4500.09 0.728879
4502.95 0.691833
4505.82 0.738184
4508.68 0.76961
4511.55 0.761861
4514.41 0.74891
4517.27 0.758015
4520.14 0.740462
4523 0.73075
4525.87 0.733893
4528.73 0.701766
4531.6 0.733634
4534.46 0.72264
4537.33 0.71958
4540.19 0.785027
4543.06 0.714993
4545.92 0.721702
4548.78 0.726012
4551.65 0.770275
4554.51 0.703497
4557.38 0.775358
4560.24 0.739303
4563.11 0.780035
4565.97 0.778152
4568.84 0.741781
4571.7 0.760989
4574.56 0.76641
4577.43 0.76282
4580.29 0.700872
4583.16 0.75846
4586.02 0.733947
4588.89 0.770506
4591.75 0.769808
4594.62 0.802231
4597.48 0.77201
4600.34 0.743568
4603.21 0.780095
4606.07 0.822042
4608.94 0.768657
4611.8 0.825817
4614.67 0.755343
4617.53 0.812029
4620.4 0.784223
4623.26 0.766643
4626.12 0.77299
4628.99 0.713559
4631.85 0.780613
4634.72 0.724609
4637.58 0.773387
4640.45 0.75552
4643.31 0.714586
4646.18 0.792036
4649.04 0.716398
4651.91 0.688216
4654.77 0.67806
4657.63 0.709343
4660.5 0.66598
4663.36 0.717662
4666.23 0.676696
4669.09 0.733435
4671.96 0.849713
4674.82 0.708911
4677.69 0.64364
4680.55 0.682647
4683.41 0.642559
4686.28 0.699625
4689.14 0.685989
4692.01 0.762211
4694.87 0.714225
4697.74 0.586327
4700.6 0.688004
4703.47 0.715971
4706.33 0.702747
4709.19 0.651337
4712.06 0.559221
4714.92 0.687763
4717.79 0.774112
4720.65 0.751071
4723.52 0.711888
4726.38 0.737517
4729.25 0.83851
4732.11 0.809259
4734.97 0.768568
4737.84 0.630834
4740.7 0.59907
4743.57 0.740851
4746.43 0.648994
4749.3 0.776267
4752.16 0.761393
4755.03 0.705913
4757.89 0.740194
4760.76 0.670972
4763.62 0.708434
4766.48 0.780261
4769.35 0.816123
4772.21 0.80022
4775.08 0.732221
4777.94 0.785802
4780.81 0.888945
4783.67 0.699686
4786.54 0.597016
4789.4 0.499644
4792.26 0.572226
4795.13 0.57018
4797.99 0.667707
4800.86 0.726046
4803.72 0.790017
4806.59 0.723745
4809.45 0.699292
4812.32 0.594934
4815.18 0.489801
4818.04 0.743147
4820.91 0.700759
4823.77 0.622573
4826.64 0.654546
4829.5 0.630334
4832.37 0.613886
4835.23 0.647297
4838.1 0.726958
4840.96 0.500572
4843.83 0.958475
4846.69 0.72505
4849.55 0.604373
4852.42 0.806953
4855.28 0.711127
4858.15 0.428506
4861.01 0.292231
4863.88 0.437442
4866.74 0.508836
4869.6 0.747539
4872.47 0.638546
4875.33 0.320634
4878.2 0.468765
4881.06 0.332047
4883.93 0.755223
4886.79 0.827792
4889.66 0.700232
4892.52 0.639985
4895.39 0.539218
4898.25 0.401405
4901.11 0.395995
4903.98 0.480119
4906.84 0.83054
4909.71 0.996591
4912.57 0.958089
4915.44 0.641804
4918.3 0.521107
4921.17 -0.0902758
4924.03 0.973365
4926.89 1.0514
4929.76 0.863477
4932.62 0.26886
4935.49 0.0256864
4938.35 1.60334
4941.22 0.42471
4944.08 0.738891
4946.95 0.597763
4949.81 0.258103
4952.67 1.62404
4955.54 0.287745
4958.4 0.178557
4961.27 0.0209302
4964.13 0.167104
4967 -0.178717
4969.86 1.30581
4972.73 0.997911
4975.59 0.240439
4978.46 0.203074
4981.32 0.409313
4984.18 1.45792
4987.05 0.749381
4989.91 0.73526
4992.78 -0.1485
4995.64 1.00865
4998.51 1.53906
5001.37 -0.638629
5004.24 -0.94969
5007.1 -1.45654
5009.96 -0.935233
5012.83 -1.17245
5015.69 -0.079113
5018.56 0.234149
5021.42 0.1993
5024.29 -0.238267
5027.15 1.37827
5030.02 0.763241
5032.88 0.792002
5035.75 1.64752
5038.61 1.0901
5041.47 1.06898
5044.34 -1.03093
5047.2 -0.443236
5050.07 -3.31656
5052.93 -1.67914
5055.8 0.629037
5058.66 1.56365
5061.52 0.519364
5064.39 2.12175
5067.25 -0.0120358
5070.12 0.741611
5072.98 3.85587
5075.85 2.74199
5078.71 3.29949
5081.58 1.42825
5084.44 1.1553
5087.31 0.0164223
5090.17 0.0614104
5093.03 0.419698
5095.9 -1.30683
5098.76 0.151787
5101.63 2.89659
5104.49 5.57358
5107.36 -1.21498
5110.22 2.23162
5113.09 6.15267
5115.95 1.316
5118.81 -0.680007
5121.68 3.9525
5124.54 0.772814
5127.41 0.0320306
5130.27 0.158473
5133.14 3.03661
5136 -0.892418
5138.87 -3.11003
5141.73 2.79857
5144.59 2.5066
5147.46 1.14289
5150.32 0.766633
5153.19 3.00826
5156.05 -0.20035
5158.92 -2.43362
5161.78 -1.86755
5164.65 0.948906
5167.51 -0.386061
5170.38 0.286999
5173.24 5.53443
5176.1 1.71492
5178.97 1.57352
5181.83 4.75574
5184.7 7.91557
5187.56 2.61418
5190.43 3.05395
5193.29 1.10126
5196.16 4.79567
5199.02 3.82885
5201.88 6.5981
5204.75 5.84871
5207.61 2.09595
5210.48 2.86886
5213.34 6.54769
5216.21 1.18626
5219.07 2.41144
5221.94 6.11567
5224.8 3.55761
5227.66 9.99057
5230.53 2.36323
5233.39 2.21767
5236.26 5.56024
5239.12 2.96635
5241.99 7.51377
5244.85 1.62969
5247.72 7.18155
5250.58 0.661448
5253.44 0.631786
5256.31 2.87817
5259.17 0.70952
5262.04 0.855327
5264.9 1.51884
5267.77 5.77268
5270.63 1.44778
5273.5 2.96732
5276.36 2.85714
5279.23 1.52546
5282.09 4.3052
5284.95 5.09312
5287.82 0.900473
5290.68 2.79073
5293.55 2.55685
5296.41 1.9833
5299.28 8.34943
5302.14 1.30845
5305.01 4.55094
5307.87 1.77216
5310.73 -0.480251
5313.6 2.74692
5316.46 1.90121
5319.33 2.75611
5322.19 1.1648
5325.06 2.82231
5327.92 6.12095
5330.79 0.732517
5333.65 0.837822
5336.51 2.38153
5339.38 2.39863
5342.24 2.05591
5345.11 0.520381
5347.97 1.80384
5350.84 -0.196838
5353.7 2.81412
5356.57 4.82032
5359.43 -0.363895
5362.29 3.14857
5365.16 3.63767
5368.02 2.89499
5370.89 3.47164
5373.75 2.18863
5376.62 2.6421
5379.48 0.635546
5382.35 2.44216
5385.21 3.63686
5388.08 3.52645
5390.94 0.835602
5393.8 3.5155
5396.67 0.271411
5399.53 0.59473
5402.4 2.21832
5405.26 0.850704
5408.13 6.8963
5410.99 3.65665
5413.86 3.5566
5416.72 -0.273601
5419.58 5.69511
5422.45 9.13756
5425.31 3.46732
5428.18 0.273609
5431.04 -1.81866
5433.91 -0.257124
5436.77 1.13937
5439.64 3.73144
5442.5 1.91769
5445.36 0.331104
5448.23 4.93442
5451.09 3.36386
5453.96 0.375757
5456.82 1.52328
5459.69 -0.510019
5462.55 0.0339028
5465.42 5.12624
5468.28 1.75413
5471.15 0.952858
5474.01 1.63025
5476.87 -0.0952746
5479.74 1.64848
5482.6 2.26015
5485.47 5.82745
5488.33 2.12596
5491.2 1.79048
5494.06 -1.24709
5496.92 0.357523
5499.79 15.0599
5502.65 2.56437
5505.52 5.4022
5508.38 2.22992
5511.25 -0.074948
5514.11 0.50351
5516.98 1.03122
5519.84 0.0919781
5522.71 -0.133976
5525.57 3.2726
5528.43 10.2199
5531.3 0.447139
5534.16 2.67321
5537.03 3.11021
5539.89 1.99876
5542.76 2.12305
5545.62 5.49104
5548.49 4.91443
5551.35 1.35952
5554.21 0.367746
5557.08 0.546482
5559.94 3.03078
5562.81 0.254447
5565.67 7.22459
5568.54 5.86898
5571.4 -1.66184
5574.27 0.172759
5577.13 0.801339
5579.99 -0.0215375
5582.86 1.38835
5585.72 6.39859
5588.59 4.26831
5591.45 8.02629
5594.32 3.91767
5597.18 1.8391
5600.05 4.47842
5602.91 9.97571
5605.78 4.32287
5608.64 6.75067
5611.5 1.80203
5614.37 1.95291
5617.23 1.91299
5620.1 3.89626
5622.96 4.00611
5625.83 6.40499
5628.69 2.95203
5631.56 2.9944
5634.42 5.33211
5637.28 3.45296
5640.15 3.05669
5643.01 4.67536
5645.88 4.36804
5648.74 3.73328
5651.61 1.39528
5654.47 4.39712
5657.34 -0.989528
5660.2 1.18874
5663.06 1.80723
5665.93 4.84844
5668.79 3.75603
5671.66 2.75991
5674.52 0.673703
5677.39 -0.428688
5680.25 5.70042
5683.12 3.61852
5685.98 11.6091
5688.84 0.0812134
5691.71 1.156
5694.57 4.50409
5697.44 1.10945
5700.3 1.76465
5703.17 -0.141048
5706.03 6.2635
5708.9 2.03666
5711.76 3.73033
5714.62 0.117835
5717.49 0.00533294
5720.35 0.49966
5723.22 -1.66413
5726.08 1.61862
5728.95 -0.116252
5731.81 -1.80516
5734.68 3.91991
5737.54 5.33071
5740.41 3.57919
5743.27 1.3486
5746.13 3.61752
5749 3.58142
5751.86 0.0181659
5754.73 2.46531
5757.59 0.628935
5760.46 2.54156
5763.32 2.01581
5766.19 5.82186
5769.05 2.49962
5771.91 5.25333
5774.78 7.88601
5777.64 4.07041
5780.51 4.65869
5783.37 3.6481
5786.24 6.24609
5789.1 0.325337
5791.97 1.64847
5794.83 2.54123
5797.69 0.571504
5800.56 3.02797
5803.42 2.23223
5806.29 3.95819
5809.15 3.71931
5812.02 3.70802
5814.88 5.23401
5817.75 1.93017
5820.61 3.94774
5823.48 2.37263
5826.34 2.06649
5829.2 0.442487
5832.07 -0.430719
5834.93 6.10141
5837.8 7.78284
5840.66 3.54424
5843.53 -0.0566597
5846.39 1.22547
5849.26 -0.108314
5852.12 3.07404
5854.98 3.9079
5857.85 -0.518677
5860.71 1.73007
5863.58 0.0307762
spectrumdark 2048
0 4026.36
2.8709 2874.53
5.74181 1075.47
8.61271 1569.36
11.4836 1870.02
14.3545 1301.29
17.2254 1060.74
20.0963 2512.53
22.9672 2528.57
25.8381 2022.9
28.709 1861.51
31.5799 2699.53
34.4509 3714.44
37.3218 3223.67
40.1927 2049.95
43.0636 2937.63
45.9345 3708.37
48.8054 4089.3
51.6763 2960.3
54.5472 4184.03
57.4181 5333.29
60.289 5320.18
63.1599 3513.83
66.0308 4513.56
68.9017 6412.1
71.7726 5562.98
74.6435 4436.34
77.5144 4538.91
80.3853 6299.6
83.2562 6688.05
86.1271 4002.57
88.998 5771.74
91.8689 7328.19
94.7398 5679.58
97.6107 4241.84
100.482 5725.07
103.353 8674.25
106.223 7465.66
109.094 4884.18
111.965 6118.07
114.836 7877.67
117.707 7181.46
120.578 5316.13
123.449 5854.14
126.32 6574.86
129.191 7331.6
132.062 5270.04
134.932 4646.56
137.803 7552.62
140.674 8028.76
143.545 5680.1
146.416 5271.61
149.287 9274.31
152.158 8203.72
155.029 3999.36
157.9 6207.38
160.771 8450.16
163.642 7845.35
166.512 4514.22
169.383 5651.46
172.254 7089.99
175.125 7108.27
177.996 4742.97
180.867 5684.12
183.738 7016.4
186.609 5623.51
189.48 3515.74
192.351 3093.5
195.221 5050.61
198.092 6460.39
200.963 5507.08
203.834 4118.85
206.705 4925.89
209.576 6721.5
212.447 6883.63
215.318 3600.32
218.189 6317.83
221.06 8549.98
223.931 6918.29
226.801 2580.37
229.672 6771.44
232.543 8297.66
235.414 6339.75
238.285 3862.63
241.156 6448.73
244.027 7277.99
246.898 5466.55
249.769 4137.93
252.64 5892.18
255.51 7445.77
258.381 5238.91
261.252 5436.48
264.123 6971.55
266.994 6665.44
269.865 5518.86
272.736 2890.29
275.607 4297.42
278.478 4726.6
281.349 3903.3
284.22 2372.7
287.09 4873.8
289.961 6556.8
292.832 4475.83
295.703 2770.12
298.574 4091.7
301.445 5881.11
304.316 5411.63
307.187 4243.73
310.058 3375.86
312.929 5372.43
315.799 5438.96
318.67 3265.57
321.541 4369.57
324.412 6592.81
327.283 5151.94
330.154 2478.73
333.025 3799.98
335.896 5861.39
338.767 5954.09
341.638 3920.88
344.509 3615.57
347.379 5424.03
350.25 5321.12
353.121 3166.44
355.992 4163.36
358.863 5215.62
361.734 5493.67
364.605 3739.23
367.476 3621.16
370.347 5988.73
373.218 6201.24
376.088 3919.88
378.959 3205.35
381.83 5864.58
384.701 5435.56
387.572 2160.78
390.443 3484.3
393.314 5143.28
396.185 4485.09
399.056 2647.83
401.927 4310.82
404.798 5627.74
407.668 4933.07
410.539 2561.94
413.41 3625.85
416.281 4080.27
419.152 3750.27
422.023 2395.52
424.894 2716.94
427.765 3379.15
430.636 4034.28
433.507 3917.32
436.378 2215.81
439.248 3330.36
442.119 4450.12
444.99 3839.89
447.861 2398.45
450.732 3474.87
453.603 4614.69
456.474 4163.61
459.345 1608.52
462.216 3866.96
465.087 5201.47
467.957 3774.5
470.828 2809.43
473.699 4860.83
476.57 5420.2
479.441 3612.35
482.312 2211.14
485.183 4174.55
488.054 4314.93
490.925 3470.24
493.796 3339.53
496.666 4007.7
499.537 4096.41
502.408 3136.39
505.279 3471.35
508.15 3999.83
511.021 3718.47
513.892 3314.93
516.763 1683.93
519.634 3019.36
522.505 3978.36
525.376 3451
528.246 2445.33
531.117 3808.29
533.988 4285.41
536.859 3596.75
539.73 2707.3
542.601 3433.98
545.472 4427.95
548.343 3432.29
551.214 1929.88
554.085 2688.02
556.955 3580.87
559.826 3598.96
562.697 2001.3
565.568 3777.75
568.439 4646.68
571.31 3426.46
574.181 2532.36
577.052 3256.83
579.923 4094.89
582.794 3692.83
585.664 3239.06
588.535 3051.61
591.406 5349.45
594.277 5572.52
597.148 4655.87
600.019 5537.51
602.89 6505.43
605.761 7288.26
608.632 6423.53
611.503 8200.82
614.374 9399.84
617.244 9149.94
620.115 9973.59
622.986 11963.5
625.857 16398.1
628.728 16164
631.599 16733.9
634.47 17416.9
637.341 21276
640.212 24135.9
643.083 24611.6
645.953 28229.1
648.824 27821.1
651.695 30463.6
654.566 32543.3
657.437 35789.8
660.308 39249.6
663.179 39346.6
666.05 42116.4
668.921 39419.3
671.792 48641.1
674.663 50850.8
677.533 50917.9
680.404 54329.9
683.275 56215.1
686.146 60706.2
689.017 62556.8
691.888 64088.2
694.759 65941.5
697.63 68917.5
700.501 73713.8
703.372 75043.7
706.242 78657.6
709.113 79190.5
711.984 82792.3
714.855 85175.5
717.726 88881
720.597 92797
723.468 94100.8
726.339 98924.9
729.21 99874.1
732.081 106073
734.952 108842
737.822 112506
740.693 116117
743.564 117770
746.435 124505
749.306 126696
752.177 130834
755.048 132936
757.919 137189
760.79 142059
763.661 146904
766.531 151535
769.402 154519
772.273 159588
775.144 161405
778.015 167051
780.886 173097
783.757 175641
786.628 179994
789.499 180918
792.37 185486
795.24 189470
798.111 193647
800.982 198033
803.853 200277
806.724 207206
809.595 211624
812.466 218192
815.337 223044
818.208 226951
821.079 232721
823.95 236735
826.82 242585
829.691 246350
832.562 251594
835.433 254585
838.304 259796
841.175 263988
844.046 268236
846.917 273736
849.788 274778
852.659 280620
855.53 283923
858.4 289932
861.271 295017
864.142 296916
867.013 302148
869.884 304180
872.755 310509
875.626 313498
878.497 318982
881.368 322379
884.239 326157
887.109 331393
889.98 337266
892.851 343122
895.722 347146
898.593 352590
901.464 357555
904.335 363229
907.206 369305
910.077 373086
912.948 378781
915.819 383285
918.689 390435
921.56 397314
924.431 402455
927.302 409278
930.173 413515
933.044 420979
935.915 427470
938.786 436383
941.657 444408
944.528 449202
947.398 457991
950.269 465424
953.14 476789
956.011 485416
958.882 495621
961.753 504427
964.624 516038
967.495 528796
970.366 540421
973.237 553596
976.107 564507
978.978 579129
981.849 590452
984.72 602627
987.591 614683
990.462 623491
993.333 632856
996.204 639010
999.075 645831
1001.95 648337
1004.82 647931
1007.69 644594
1010.56 638568
1013.43 633477
1016.3 625355
1019.17 616896
1022.04 607035
1024.91 597374
1027.78 587323
1030.65 576286
1033.53 565863
1036.4 553516
1039.27 541618
1042.14 528432
1045.01 515199
1047.88 503700
1050.75 490505
1053.62 478641
1056.49 465160
1059.36 453073
1062.23 440662
1065.11 426966
1067.98 415043
1070.85 400782
1073.72 390997
1076.59 378579
1079.46 369047
1082.33 359025
1085.2 349472
1088.07 341510
1090.94 334035
1093.81 330217
1096.69 325281
1099.56 322973
1102.43 317825
1105.3 315948
1108.17 314448
1111.04 313477
1113.91 313853
1116.78 312150
1119.65 311682
1122.52 310916
1125.39 311499
1128.27 311779
1131.14 311225
1134.01 311562
1136.88 310437
1139.75 311229
1142.62 310861
1145.49 310517
1148.36 309514
1151.23 307579
1154.1 307401
1156.97 305889
1159.85 305171
1162.72 303070
1165.59 300306
1168.46 298452
1171.33 295908
1174.2 294951
1177.07 290941
1179.94 288506
1182.81 284587
1185.68 281983
1188.55 279904
1191.43 276390
1194.3 274010
1197.17 270191
1200.04 267915
1202.91 264917
1205.78 263376
1208.65 261402
1211.52 259134
1214.39 258750
1217.26 257690
1220.13 260306
1223.01 259748
1225.88 261832
1228.75 263713
1231.62 267530
1234.49 272559
1237.36 277124
1240.23 283213
1243.1 287562
1245.97 293710
1248.84 299600
1251.71 305015
1254.59 309158
1257.46 310644
1260.33 311085
1263.2 310227
1266.07 311897
1268.94 313504
1271.81 314163
1274.68 314693
1277.55 314330
1280.42 315250
1283.29 314642
1286.17 313852
1289.04 312992
1291.91 312054
1294.78 311740
1297.65 309825
1300.52 310382
1303.39 308491
1306.26 308014
1309.13 306475
1312 305923
1314.87 305920
1317.75 303787
1320.62 302664
1323.49 301415
1326.36 302551
1329.23 302179
1332.1 301963
1334.97 300240
1337.84 296424
1340.71 291708
1343.58 290828
1346.45 295387
1349.33 295205
1352.2 294648
1355.07 293748
1357.94 291628
1360.81 291924
1363.68 285186
1366.55 285720
1369.42 289827
1372.29 288639
1375.16 285469
1378.03 284676
1380.91 289833
1383.78 289104
1386.65 287558
1389.52 278288
1392.39 283967
1395.26 280109
1398.13 271306
1401 274520
1403.87 280597
1406.74 279885
1409.61 282724
1412.48 283677
1415.36 281595
1418.23 273395
1421.1 255184
1423.97 268038
1426.84 274947
1429.71 278091
1432.58 272088
1435.45 273245
1438.32 255729
1441.19 265681
1444.06 277371
1446.94 276392
1449.81 267588
1452.68 269922
1455.55 265109
1458.42 236387
1461.29 240127
1464.16 267813
1467.03 259288
1469.9 266470
1472.77 262001
1475.64 241066
1478.52 258827
1481.39 271185
1484.26 271782
1487.13 271910
1490 258698
1492.87 251355
1495.74 263266
1498.61 247977
1501.48 252169
1504.35 259145
1507.22 237709
1510.1 210562
1512.97 247107
1515.84 250996
1518.71 241982
1521.58 235357
1524.45 220042
1527.32 240820
1530.19 245928
1533.06 253620
1535.93 238839
1538.8 240323
1541.68 206367
1544.55 206708
1547.42 232495
1550.29 248901
1553.16 245274
1556.03 236709
1558.9 217947
1561.77 186523
1564.64 233782
1567.51 248292
1570.38 246472
1573.26 237274
1576.13 247664
1579 223786
1581.87 250008
1584.74 253805
1587.61 254334
1590.48 251896
1593.35 249750
1596.22 246908
1599.09 244605
1601.96 242743
1604.84 237465
1607.71 233468
1610.58 227782
1613.45 223111
1616.32 216542
1619.19 194055
1622.06 203995
1624.93 202873
1627.8 202551
1630.67 207213
1633.54 210446
1636.42 202275
1639.29 188969
1642.16 216896
1645.03 219863
1647.9 208745
1650.77 198374
1653.64 204496
1656.51 175682
1659.38 228256
1662.25 237193
1665.12 230223
1668 235601
1670.87 229283
1673.74 221690
1676.61 229996
1679.48 226900
1682.35 236269
1685.22 221712
1688.09 203253
1690.96 238074
1693.83 237836
1696.7 231553
1699.58 203281
1702.45 202495
1705.32 216036
1708.19 230632
1711.06 237704
1713.93 239635
1716.8 227254
1719.67 210627
1722.54 222308
1725.41 241612
1728.28 240910
1731.16 236289
1734.03 226007
1736.9 202941
1739.77 224825
1742.64 225539
1745.51 231232
1748.38 231707
1751.25 226752
1754.12 221451
1756.99 234943
1759.86 232062
1762.74 234623
1765.61 227780
1768.48 236120
1771.35 224202
1774.22 218439
1777.09 218138
1779.96 231034
1782.83 229859
1785.7 228848
1788.57 227832
1791.44 227457
1794.32 217224
1797.19 216068
1800.06 224344
1802.93 220934
1805.8 220996
1808.67 222995
1811.54 219315
1814.41 215901
1817.28 214969
1820.15 209035
1823.02 203226
1825.9 198943
1828.77 191969
1831.64 191458
1834.51 189430
1837.38 193139
1840.25 190434
1843.12 186123
1845.99 179962
1848.86 176721
1851.73 182067
1854.6 181476
1857.48 178986
1860.35 177558
1863.22 175985
1866.09 173354
1868.96 169492
1871.83 164570
1874.7 166461
1877.57 167047
1880.44 166205
1883.31 164762
1886.18 162250
1889.06 159567
1891.93 156544
1894.8 155485
1897.67 154852
1900.54 153216
1903.41 151928
1906.28 149297
1909.15 147862
1912.02 145340
1914.89 144228
1917.76 141110
1920.64 137915
1923.51 137215
1926.38 135963
1929.25 134938
1932.12 131535
1934.99 129085
1937.86 125540
1940.73 123115
1943.6 120567
1946.47 117925
1949.34 116311
1952.21 113652
1955.09 111705
1957.96 109319
1960.83 107300
1963.7 103536
1966.57 100710
1969.44 98610.8
1972.31 96646.6
1975.18 95538.3
1978.05 93917.1
1980.92 92661.5
1983.79 94074
1986.67 97180.2
1989.54 99410.7
1992.41 99760.1
1995.28 100921
1998.15 101127
2001.02 101354
2003.89 100870
2006.76 99524.2
2009.63 97157.3
2012.5 94777.2
2015.37 94597.9
2018.25 93560.9
2021.12 93818.9
2023.99 94063.4
2026.86 93163.8
2029.73 92986.1
2032.6 91754.4
2035.47 92624.1
2038.34 92787.8
2041.21 94940.5
2044.08 96820.3
2046.95 98394.5
2049.83 100507
2052.7 102571
2055.57 108947
2058.44 111739
2061.31 114257
2064.18 115634
2067.05 117273
2069.92 119009
2072.79 120611
2075.66 122417
2078.53 123781
2081.41 126542
2084.28 128855
2087.15 131256
2090.02 132432
2092.89 132991
2095.76 133063
2098.63 132004
2101.5 131637
2104.37 132377
2107.24 132800
2110.11 133414
2112.99 133833
2115.86 134952
2118.73 135945
2121.6 136398
2124.47 135556
2127.34 133261
2130.21 130763
2133.08 126935
2135.95 122514
2138.82 115906
2141.69 111730
2144.57 108076
2147.44 105029
2150.31 102008
2153.18 98451.3
2156.05 95621.9
2158.92 91357.4
2161.79 86836.4
2164.66 84476.9
2167.53 86980.3
2170.4 89225.1
2173.27 91577.5
2176.15 93656.8
2179.02 93737.9
2181.89 94711.2
2184.76 94664.3
2187.63 94525.4
2190.5 96021.9
2193.37 97538.4
2196.24 99719.5
2199.11 100661
2201.98 101688
2204.85 102430
2207.73 103487
2210.6 104800
2213.47 105731
2216.34 106657
2219.21 107291
2222.08 108457
2224.95 109627
2227.82 111013
2230.69 112079
2233.56 112863
2236.43 114120
2239.31 115540
2242.18 117603
2245.05 119337
2247.92 120489
2250.79 122177
2253.66 123630
2256.53 125588
2259.4 126462
2262.27 128691
2265.14 130621
2268.01 132332
2270.89 134580
2273.76 137013
2276.63 140629
2279.5 143486
2282.37 147455
2285.24 151295
2288.11 156721
2290.98 162991
2293.85 169013
2296.72 174442
2299.59 178697
2302.47 182898
2305.34 186391
2308.21 189513
2311.08 191667
2313.95 193471
2316.82 195468
2319.69 196640
2322.56 198547
2325.43 201312
2328.3 207796
2331.17 213951
2334.05 211504
2336.92 208895
2339.79 207066
2342.66 206474
2345.53 207771
2348.4 213109
2351.27 221719
2354.14 225390
2357.01 210474
2359.88 195124
2362.75 185241
2365.63 180718
2368.5 179928
2371.37 182391
2374.24 187878
2377.11 194764
2379.98 201078
2382.85 206124
2385.72 207671
2388.59 207038
2391.46 205118
2394.33 201781
2397.21 199381
2400.08 196192
2402.95 193396
2405.82 190012
2408.69 187081
2411.56 184182
2414.43 182356
2417.3 181250
2420.17 179296
2423.04 177545
2425.91 175335
2428.79 174163
2431.66 172631
2434.53 171831
2437.4 170408
2440.27 169159
2443.14 168273
2446.01 167480
2448.88 167264
2451.75 166444
2454.62 165999
2457.49 165928
2460.36 166074
2463.24 166330
2466.11 165911
2468.98 165050
2471.85 164236
2474.72 163323
2477.59 163009
2480.46 161938
2483.33 161190
2486.2 159756
2489.07 159297
2491.95 158821
2494.82 158434
2497.69 157983
2500.56 156971
2503.43 156423
2506.3 155535
2509.17 155507
2512.04 155223
2514.91 154390
2517.78 153909
2520.65 153113
2523.53 153156
2526.4 152433
2529.27 152203
2532.14 151788
2535.01 151343
2537.88 151367
2540.75 150921
2543.62 151144
2546.49 150603
2549.36 150565
2552.23 150331
2555.1 150723
2557.98 151296
2560.85 151088
2563.72 151246
2566.59 151312
2569.46 151793
2572.33 152406
2575.2 153131
2578.07 153772
2580.94 154027
2583.81 154923
2586.68 155718
2589.56 156832
2592.43 158029
2595.3 159079
2598.17 160497
2601.04 161703
2603.91 163523
2606.78 165226
2609.65 166962
2612.52 168673
2615.39 170764
2618.26 173377
2621.14 175512
2624.01 178540
2626.88 180708
2629.75 183731
2632.62 186818
2635.49 190356
2638.36 193765
2641.23 196991
2644.1 200669
2646.97 204158
2649.84 208436
2652.72 212429
2655.59 216611
2658.46 220275
2661.33 223301
2664.2 226620
2667.07 228888
2669.94 230250
2672.81 229848
2675.68 229378
2678.55 228905
2681.42 228135
2684.3 227668
2687.17 226715
2690.04 226231
2692.91 225370
2695.78 224673
2698.65 224052
2701.52 223082
2704.39 222323
2707.26 221549
2710.13 221023
2713 220390
2715.88 220064
2718.75 219028
2721.62 217819
2724.49 217413
2727.36 216475
2730.23 216193
2733.1 215469
2735.97 214600
2738.84 214026
2741.71 212958
2744.58 212743
2747.46 211936
2750.33 211580
2753.2 210487
2756.07 210033
2758.94 209469
2761.81 208767
2764.68 208340
2767.55 207128
2770.42 206665
2773.29 205974
2776.16 205723
2779.04 205086
2781.91 204214
2784.78 203464
2787.65 202585
2790.52 202235
2793.39 201704
2796.26 201181
2799.13 200396
2802 199549
2804.87 199060
2807.74 198478
2810.62 198050
2813.49 197197
2816.36 196548
2819.23 195606
2822.1 195049
2824.97 194715
2827.84 193933
2830.71 193515
2833.58 192642
2836.45 191794
2839.32 191316
2842.2 190636
2845.07 189945
2847.94 188948
2850.81 188222
2853.68 187125
2856.55 186355
2859.42 185537
2862.29 184454
2865.16 184027
2868.03 183608
2870.9 183235
2873.78 182912
2876.65 182126
2879.52 181283
2882.39 180831
2885.26 180636
2888.13 179834
2891 179434
2893.87 178307
2896.74 177772
2899.61 177007
2902.48 176144
2905.36 175856
2908.23 175012
2911.1 174245
2913.97 173227
2916.84 172550
2919.71 171351
2922.58 170675
2925.45 169723
2928.32 168407
2931.19 167751
2934.06 167431
2936.94 167188
2939.81 166487
2942.68 165795
2945.55 165821
2948.42 165323
2951.29 165258
2954.16 164427
2957.03 164032
2959.9 163225
2962.77 162487
2965.64 162241
2968.52 161389
2971.39 161313
2974.26 160747
2977.13 160511
2980 160463
2982.87 160500
2985.74 160442
2988.61 159912
2991.48 159736
2994.35 158943
2997.22 158631
3000.1 158135
3002.97 157409
3005.84 157178
3008.71 156266
3011.58 156155
3014.45 155421
3017.32 154794
3020.19 154145
3023.06 153528
3025.93 153567
3028.8 152800
3031.68 152503
3034.55 151527
3037.42 150639
3040.29 150168
3043.16 150079
3046.03 149616
3048.9 149147
3051.77 148508
3054.64 147647
3057.51 147279
3060.38 146850
3063.26 146127
3066.13 145828
3069 145008
3071.87 144512
3074.74 144132
3077.61 143727
3080.48 143206
3083.35 142208
3086.22 141553
3089.09 141014
3091.96 141106
3094.83 140403
3097.71 139800
3100.58 138930
3103.45 138331
3106.32 138004
3109.19 137518
3112.06 137103
3114.93 136220
3117.8 135852
3120.67 134912
3123.54 134474
3126.41 134521
3129.29 133737
3132.16 133381
3135.03 132472
3137.9 132155
3140.77 131815
3143.64 131167
3146.51 130572
3149.38 129997
3152.25 129755
3155.12 128864
3157.99 128408
3160.87 127834
3163.74 126917
3166.61 126753
3169.48 126143
3172.35 125687
3175.22 124924
3178.09 124427
3180.96 123847
3183.83 123254
3186.7 123127
3189.57 122431
3192.45 121992
3195.32 120973
3198.19 120357
3201.06 120106
3203.93 119734
3206.8 119414
3209.67 118674
3212.54 118323
3215.41 117649
3218.28 117451
3221.15 116930
3224.03 116455
3226.9 116227
3229.77 115475
3232.64 115453
3235.51 114918
3238.38 114685
3241.25 114343
3244.12 114021
3246.99 113926
3249.86 113576
3252.73 113369
3255.61 112949
3258.48 112763
3261.35 112427
3264.22 112392
3267.09 112145
3269.96 111835
3272.83 111445
3275.7 110963
3278.57 110736
3281.44 110513
3284.31 110410
3287.19 110311
3290.06 109651
3292.93 109341
3295.8 108746
3298.67 108697
3301.54 108163
3304.41 107667
3307.28 107322
3310.15 106825
3313.02 106745
3315.89 105883
3318.77 105717
3321.64 105141
3324.51 104661
3327.38 104477
3330.25 103812
3333.12 103457
3335.99 102587
3338.86 102130
3341.73 101539
3344.6 101165
3347.47 101105
3350.35 100140
3353.22 99587.5
3356.09 98788.7
3358.96 98873.9
3361.83 98062
3364.7 97459.3
3367.57 96857.2
3370.44 96033
3373.31 95369.8
3376.18 94785.9
3379.05 94799.9
3381.93 94027.5
3384.8 93468
3387.67 92765.9
3390.54 91943.8
3393.41 91636.6
3396.28 90917.7
3399.15 90255.9
3402.02 89603.6
3404.89 89024.6
3407.76 88811.2
3410.63 88393.5
3413.51 87612.8
3416.38 86848.2
3419.25 86547.7
3422.12 85851.5
3424.99 85313.2
3427.86 84526.2
3430.73 84051.8
3433.6 83588
3436.47 82760.8
3439.34 82777.7
3442.21 82126.8
3445.09 81629.1
3447.96 80868.1
3450.83 80229.2
3453.7 79588.3
3456.57 79555.4
3459.44 79228.2
3462.31 78289.2
3465.18 77802
3468.05 77212.2
3470.92 76816.4
3473.79 76306.4
3476.67 75905.8
3479.54 75780.9
3482.41 75231.8
3485.28 74859.5
3488.15 74194.8
3491.02 73850.6
3493.89 73560.3
3496.76 72805.7
3499.63 72767.1
3502.5 72227.6
3505.37 72130.8
3508.25 71000.2
3511.12 70587.7
3513.99 70981
3516.86 70248.2
3519.73 70630.9
3522.6 70424.8
3525.47 69974.9
3528.34 69345.2
3531.21 68788.3
3534.08 68494.7
3536.95 68781
3539.83 69257.8
3542.7 68577.3
3545.57 68909.8
3548.44 68769.4
3551.31 67578
3554.18 67451.6
3557.05 68128.1
3559.92 67954.1
3562.79 68524.3
3565.66 68358.6
3568.53 68038.1
3571.41 66659
3574.28 64436.5
3577.15 67612.9
3580.02 69186.7
3582.89 69187.1
3585.76 68961.4
3588.63 69020.5
3591.5 68315.2
3594.37 65361.2
3597.24 68143.6
3600.11 69597.5
3602.98 69185.9
3605.86 69930.5
3608.73 70361.7
3611.6 71161.6
3614.47 68886.8
3617.34 68542.3
3620.21 69271.7
3623.08 70755.5
3625.95 68529.7
3628.82 71834.3
3631.69 73663.7
3634.56 68005.5
3637.44 68110.3
3640.31 74382.9
3643.18 75680.9
3646.05 76020.4
3648.92 75666.6
3651.79 74745
3654.66 68235.1
3657.53 66425.1
3660.4 74671
3663.27 72353.3
3666.15 76175.2
3669.02 76442.9
3671.89 76201.9
3674.76 73039.3
3677.63 66965.6
3680.5 69447.1
3683.37 65228.8
3686.24 73216.4
3689.11 75142.8
3691.98 75261
3694.85 68728.6
3697.72 68767.7
3700.6 74299.7
3703.47 75438.9
3706.34 75258.2
3709.21 72603.4
3712.08 74723.9
3714.95 73132
3717.82 68273.8
3720.69 70413.6
3723.56 74688.3
3726.43 73822
3729.3 71725.9
3732.18 70957.2
3735.05 71786.5
3737.92 70268.5
3740.79 66226
3743.66 64375
3746.53 69845.5
3749.4 67748
3752.27 59622.3
3755.14 65640.6
3758.01 61270.6
3760.88 67907.3
3763.76 71947.5
3766.63 71122.8
3769.5 73764.7
3772.37 72768
3775.24 72272.8
3778.11 71305.8
3780.98 74834.8
3783.85 74449.4
3786.72 72273
3789.59 73719.4
3792.46 73668.1
3795.34 74409.1
3798.21 74228.8
3801.08 73697.1
3803.95 70615.3
3806.82 68796.9
3809.69 65026.8
3812.56 68909.6
3815.43 67870.8
3818.3 72512.4
3821.17 70191.5
3824.04 64845
3826.92 66298.7
3829.79 65226.5
3832.66 69985.3
3835.53 70100.5
3838.4 68403.2
3841.27 67397.2
3844.14 62931.9
3847.01 63761.7
3849.88 66805.5
3852.75 68347.8
3855.62 69253.6
3858.5 63011.5
3861.37 53634.8
3864.24 64779.2
3867.11 68027.9
3869.98 65460.2
3872.85 64213.5
3875.72 63756
3878.59 62554.1
3881.46 65339.2
3884.33 66998.7
3887.2 64152.8
3890.08 64829.2
3892.95 62179.2
3895.82 65420.7
3898.69 62789.7
3901.56 65444.1
3904.43 65012.5
3907.3 61315.1
3910.17 60117.2
3913.04 62220.2
3915.91 65612.9
3918.78 65653.8
3921.66 65069.3
3924.53 62705.9
3927.4 63409.5
3930.27 63602.3
3933.14 63276.1
3936.01 63472.4
3938.88 62239.4
3941.75 63020.8
3944.62 63262.3
3947.49 62993.8
3950.36 61535.5
3953.24 61960.8
3956.11 61439
3958.98 61657.5
3961.85 61971.2
3964.72 61375.7
3967.59 61073.9
3970.46 60814.3
3973.33 60987.7
3976.2 60838.9
3979.07 60258.1
3981.94 59812.9
3984.82 59523.8
3987.69 59778
3990.56 59468.9
3993.43 59220.3
3996.3 58846.7
3999.17 58605
4002.04 58568.6
4004.91 58161.1
4007.78 58237.2
4010.65 57723.7
4013.52 57609.9
4016.4 57264
4019.27 56967.8
4022.14 56916.4
4025.01 56661
4027.88 56504
4030.75 56090.9
4033.62 55913.5
4036.49 55951.7
4039.36 55496.3
4042.23 55402.4
4045.1 54875.3
4047.98 55067.5
4050.85 54666.9
4053.72 54650.9
4056.59 54541
4059.46 54137.3
4062.33 54233.8
4065.2 53743.7
4068.07 53830.9
4070.94 53308.5
4073.81 53421
4076.68 53093.9
4079.56 52792.9
4082.43 52750.6
4085.3 52416
4088.17 52424.4
4091.04 52226.4
4093.91 52189
4096.78 51966.6
4099.65 51821.6
4102.52 51657.4
4105.39 51429.9
4108.26 51375.9
4111.14 51190.2
4114.01 51067.9
4116.88 51025.4
4119.75 50710.7
4122.62 50582
4125.49 50363.3
4128.36 50596.9
4131.23 50232.2
4134.1 50311.9
4136.97 50017
4139.84 49769
4142.72 49660.7
4145.59 49459.9
4148.46 49622.1
4151.33 49372.2
4154.2 49501.7
4157.07 49208.6
4159.94 49275.8
4162.81 49030.3
4165.68 48893.6
4168.55 48800
4171.42 48693.4
4174.3 48694
4177.17 48587
4180.04 48534.6
4182.91 48559.4
4185.78 48150.5
4188.65 48294
4191.52 48110.4
4194.39 48375.3
4197.26 48104.8
4200.13 47849.7
4203 47623.5
4205.87 47679.9
4208.75 47871.3
4211.62 47651
4214.49 47682.3
4217.36 47538.4
4220.23 47534.3
4223.1 47425.1
4225.97 47419.3
4228.84 47620.6
4231.71 47326.7
4234.58 47380.7
4237.45 47315.3
4240.33 47346.1
4243.2 47361
4246.07 47223.3
4248.94 47106
4251.81 46984.1
4254.68 47120.3
4257.55 47091.6
4260.42 47041.8
4263.29 46932.1
4266.16 46815.2
4269.03 47013.7
4271.91 46821.2
4274.78 47066.8
4277.65 46727.2
4280.52 46822.8
4283.39 46767.2
4286.26 46704
4289.13 46940.3
4292 47000.1
4294.87 46968.4
4297.74 46562.5
4300.61 46786.5
4303.49 46839.6
4306.36 46750
4309.23 46818.1
4312.1 46611.1
4314.97 46475.7
4317.84 46502
4320.71 46742.6
4323.58 46588
4326.45 46650.2
4329.32 46726.5
4332.19 46616.8
4335.07 46544.2
4337.94 46238.5
4340.81 46495.1
4343.68 46312.8
4346.55 46140.5
4349.42 46415.3
4352.29 46416.2
4355.16 46408.6
4358.03 46068.9
4360.9 46173
4363.77 46208.5
4366.65 46328.9
4369.52 46279.4
4372.39 46097.1
4375.26 46049.4
4378.13 45944
4381 45963.5
4383.87 45926.7
4386.74 45692.6
4389.61 45756.4
4392.48 45633.4
4395.35 45747.8
4398.23 45496.6
4401.1 45708.8
4403.97 45464.4
4406.84 45445.7
4409.71 45537.5
4412.58 45311.1
4415.45 45506
4418.32 45157.5
4421.19 45078.8
4424.06 44995
4426.93 45067.7
4429.81 45056.5
4432.68 44852.7
4435.55 44736.9
4438.42 44544.1
4441.29 44643.9
4444.16 44480.2
4447.03 44370.3
4449.9 44405.2
4452.77 44025.7
4455.64 43961.1
4458.51 43736.3
4461.39 43871.5
4464.26 43687.7
4467.13 43487
4470 43441.9
4472.87 43270.9
4475.74 43307.3
4478.61 42827.7
4481.48 42757.6
4484.35 42481.8
4487.22 42442.8
4490.09 42241.8
4492.97 41996.5
4495.84 41978.5
4498.71 41724.7
4501.58 41670.3
4504.45 41167.2
4507.32 41327.3
4510.19 41191.1
4513.06 40812.6
4515.93 40619
4518.8 40200.8
4521.67 40248.1
4524.55 40015.1
4527.42 39869.7
4530.29 39414
4533.16 39285.6
4536.03 39186
4538.9 38734.1
4541.77 38633
4544.64 38263.7
4547.51 38104.2
4550.38 37864.6
4553.25 37501.3
4556.13 37440.8
4559 36944.1
4561.87 36777.3
4564.74 36293.6
4567.61 36310
4570.48 35961.7
4573.35 35645.7
4576.22 35322.9
4579.09 34912
4581.96 34906.3
4584.83 34631.2
4587.71 34304.1
4590.58 33992
4593.45 33662.3
4596.32 33209.6
4599.19 32826
4602.06 32701.3
4604.93 32307.1
4607.8 32010.9
4610.67 31654.1
4613.54 31215
4616.41 31112.3
4619.29 30662.6
4622.16 30477.3
4625.03 29990.8
4627.9 29723.1
4630.77 29327.7
4633.64 28998.1
4636.51 28634.9
4639.38 28032.9
4642.25 27956.1
4645.12 27544.3
4647.99 27445.5
4650.87 26909.2
4653.74 26459.1
4656.61 26058.4
4659.48 25678.4
4662.35 25584
4665.22 25083.6
4668.09 24743.4
4670.96 24286.9
4673.83 23872.4
4676.7 23692.9
4679.57 23429.3
4682.45 23200.1
4685.32 22668.2
4688.19 22389.8
4691.06 21985.5
4693.93 21640
4696.8 21409.8
4699.67 20828.5
4702.54 20678.1
4705.41 20200.7
4708.28 19989.8
4711.15 19516.2
4714.03 19271.8
4716.9 19038.7
4719.77 18548.9
4722.64 18244
4725.51 18002.5
4728.38 17776.8
4731.25 17197.8
4734.12 16837.6
4736.99 16651.2
4739.86 16362.6
4742.73 16206.2
4745.6 15745.5
4748.48 15531.3
4751.35 15089.6
4754.22 14843.1
4757.09 14621.5
4759.96 14213.9
4762.83 14105.2
4765.7 13535.7
4768.57 13340.6
4771.44 13031.7
4774.31 12924.1
4777.18 12625.7
4780.06 12200.5
4782.93 11962.3
4785.8 11512.6
4788.67 11514.3
4791.54 11136.6
4794.41 10943.2
4797.28 10659.2
4800.15 10307.7
4803.02 10128.2
4805.89 9762.46
4808.76 9688.91
4811.64 9390.2
4814.51 9336.12
4817.38 9110.82
4820.25 8785.79
4823.12 8741.23
4825.99 8309.4
4828.86 8177.76
4831.73 7847.83
4834.6 7837.31
4837.47 7683.98
4840.34 7342.66
4843.22 7173.01
4846.09 6881
4848.96 6771.57
4851.83 6552.12
4854.7 6405.84
4857.57 6109.57
4860.44 6175.75
4863.31 5983.38
4866.18 5850.17
4869.05 5702.28
4871.92 5473.47
4874.8 5255.17
4877.67 4955.7
4880.54 4990.86
4883.41 5049.25
4886.28 4567.09
4889.15 4693.79
4892.02 4326.58
4894.89 4469.25
4897.76 4290.36
4900.63 4146.52
4903.5 3901.78
4906.38 3797.55
4909.25 3764.76
4912.12 3465.64
4914.99 3466.8
4917.86 3417.09
4920.73 3325.32
4923.6 3235.02
4926.47 3066.42
4929.34 3085.36
4932.21 2915.86
4935.08 2910.47
4937.96 2777.89
4940.83 2787.3
4943.7 2573.83
4946.57 2552.58
4949.44 2616.26
4952.31 2276.75
4955.18 2245.58
4958.05 2168.51
4960.92 2238.94
4963.79 2287.77
4966.67 1979.68
4969.54 2008.71
4972.41 1812.31
4975.28 1964.73
4978.15 1755.52
4981.02 1830.13
4983.89 1737.46
4986.76 1485.68
4989.63 1599.55
4992.5 1493.74
4995.37 1597.44
4998.24 1488.18
5001.12 1446.74
5003.99 1332.67
5006.86 1368.9
5009.73 1353.93
5012.6 1134.37
5015.47 1196.93
5018.34 1064.88
5021.21 1122.16
5024.08 1087.27
5026.95 934.884
5029.82 991.092
5032.7 944.82
5035.57 901.976
5038.44 973.193
5041.31 1100.86
5044.18 969.591
5047.05 708.73
5049.92 823.996
5052.79 838.397
5055.66 815.266
5058.53 706.777
5061.4 625.367
5064.28 714.948
5067.15 708.521
5070.02 570.099
5072.89 549.82
5075.76 669.485
5078.63 671.247
5081.5 663.06
5084.37 461.686
5087.24 493.781
5090.11 414.274
5092.98 501.454
5095.86 505.698
5098.73 476.317
5101.6 559.568
5104.47 405.603
5107.34 378.144
5110.21 403.389
5113.08 528.369
5115.95 421.907
5118.82 316.904
5121.69 437.586
5124.56 494.288
5127.44 462.166
5130.31 422.385
5133.18 479.837
5136.05 440.849
5138.92 357.971
5141.79 346.242
5144.66 394.15
5147.53 460.974
5150.4 294.384
5153.27 393.425
5156.14 292.118
5159.02 461.769
5161.89 402.168
5164.76 411.302
5167.63 437.837
5170.5 416.97
5173.37 443.832
5176.24 356.406
5179.11 498.737
5181.98 438.456
5184.85 532.921
5187.72 584.896
5190.6 442.78
5193.47 528.582
5196.34 427.073
5199.21 565.48
5202.08 382.366
5204.95 546.57
5207.82 509.239
5210.69 372.353
5213.56 449.457
5216.43 454.086
5219.3 499.836
5222.18 389.689
5225.05 544.546
5227.92 445.671
5230.79 459.182
5233.66 424.966
5236.53 540.391
5239.4 665.821
5242.27 486.797
5245.14 522.996
5248.01 431.001
5250.88 538.047
5253.75 557.788
5256.63 366.332
5259.5 554.305
5262.37 443.877
5265.24 530.506
5268.11 518.225
5270.98 491.819
5273.85 484.005
5276.72 472.123
5279.59 670.016
5282.46 506.225
5285.33 684.241
5288.21 587.551
5291.08 550.828
5293.95 712.782
5296.82 546.999
5299.69 609.54
5302.56 538.014
5305.43 637.302
5308.3 668.625
5311.17 657.456
5314.04 613.135
5316.92 651.604
5319.79 823.916
5322.66 557.158
5325.53 788.783
5328.4 636.298
5331.27 640.542
5334.14 721.793
5337.01 708.773
5339.88 735.217
5342.75 545.746
5345.62 824.736
5348.5 623.975
5351.37 604.59
5354.24 627.976
5357.11 840.625
5359.98 842.459
5362.85 664.549
5365.72 941.347
5368.59 640.897
5371.46 632.516
5374.33 597.201
5377.2 804.898
5380.07 770.367
5382.95 537.959
5385.82 702.957
5388.69 680.28
5391.56 664.726
5394.43 619.998
5397.3 536.754
5400.17 654.934
5403.04 524.21
5405.91 628.796
5408.78 555.503
5411.65 682.161
5414.53 707.678
5417.4 595.198
5420.27 670.247
5423.14 497.567
5426.01 634.298
5428.88 494.523
5431.75 668.842
5434.62 580.816
5437.49 573.451
5440.36 681.037
5443.23 499.137
5446.11 665.735
5448.98 645.517
5451.85 694.843
5454.72 636.583
5457.59 573.515
5460.46 697.539
5463.33 588.259
5466.2 508.948
5469.07 430.729
5471.94 636.401
5474.81 626.47
5477.69 582.41
5480.56 594.242
5483.43 461.774
5486.3 708.593
5489.17 605.628
5492.04 600.288
5494.91 473.15
5497.78 545.113
5500.65 609.653
5503.52 493.12
5506.4 540.283
5509.27 503.924
5512.14 589.251
5515.01 621.238
5517.88 608.686
5520.75 601.918
5523.62 551.523
5526.49 615.246
5529.36 554.056
5532.23 582.952
5535.1 521.369
5537.97 557.555
5540.85 621.884
5543.72 496.586
5546.59 597.685
5549.46 501.081
5552.33 622.558
5555.2 599.437
5558.07 508.372
5560.94 586.553
5563.81 579.488
5566.68 623.482
5569.55 419.724
5572.43 496.713
5575.3 393.235
5578.17 501.067
5581.04 588.752
5583.91 380.032
5586.78 635.691
5589.65 623.187
5592.52 514.622
5595.39 532.893
5598.26 649.906
5601.13 461.673
5604.01 472.159
5606.88 537.408
5609.75 432.976
5612.62 583.929
5615.49 536.044
5618.36 499.994
5621.23 566.065
5624.1 479.176
5626.97 611.829
5629.84 561.583
5632.71 457.917
5635.59 478.498
5638.46 473.004
5641.33 548.113
5644.2 501.439
5647.07 576.168
5649.94 530.725
5652.81 512.039
5655.68 517.414
5658.55 615.012
5661.42 551.297
5664.29 401.483
5667.17 443.147
5670.04 352.453
5672.91 579.731
5675.78 517.046
5678.65 639.791
5681.52 613.025
5684.39 437.29
5687.26 541.643
5690.13 530.431
5693 741.725
5695.87 576.412
5698.75 531.956
5701.62 545.656
5704.49 506.51
5707.36 569.597
5710.23 493.217
5713.1 577.263
5715.97 358.456
5718.84 488.856
5721.71 526.365
5724.58 395.691
5727.45 535.625
5730.33 519.298
5733.2 565.895
5736.07 408.22
5738.94 545.764
5741.81 505.858
5744.68 432.135
5747.55 597.33
5750.42 388.795
5753.29 563.162
5756.16 489.196
5759.03 440.845
5761.9 537.486
5764.78 410.777
5767.65 513.977
5770.52 376.599
5773.39 533.633
5776.26 412.788
5779.13 433.879
5782 559.141
5784.87 557.932
5787.74 518.624
5790.61 383.05
5793.48 577.67
5796.36 419.466
5799.23 467.476
5802.1 549.461
5804.97 541.953
5807.84 468.822
5810.71 424.882
5813.58 520.031
5816.45 502.57
5819.32 592.702
5822.19 638.814
5825.06 512.287
5827.94 569.607
5830.81 377.615
5833.68 471.494
5836.55 456.149
5839.42 432.964
5842.29 409.935
5845.16 360.95
5848.03 531.928
5850.9 526.26
5853.77 554.497
5856.65 442.441
5859.52 481.366
5862.39 369.277
5865.26 454.828
5868.13 621.43
5871 406.174
5873.87 560.861
5876.74 478.456
