scanname 扫描021
timestamp 1/1/1970 01:19
scancount 1
laserwavenum 850.5
measurementstate Unknown
scanmode Identification
snr 16.43 16.43 16.43
replacelist 0
peaks 8
785.928 0.610405 0 2.09753 0.000555889
865.609 0.168569 0 3.1769 0.000168619
1005.44 0.678667 0 11.2027 0.00059093
1088.5 0.512899 0 2.11345 0.000184413
1257.07 0.277343 0 42.778 0.00147453
1411.95 0.039976 0 1.71823 6.86065e-05
1538.6 0.0285275 0 0.677647 4.66347e-05
2961.65 0.0983475 0 12.1249 0.000434966
finalresult Unknown match 1A15594	0.0479482
spectrum 2048
0 4.00594
2.86447 3.74313
5.72895 0.472445
8.59342 -1.25308
11.4579 -2.39986
14.3224 2.09482
17.1868 -2.73494
20.0513 -0.946267
22.9158 0.29227
25.7803 -0.902643
28.6447 -0.756491
31.5092 -2.78408
34.3737 -2.29361
37.2382 0.166805
40.1026 -1.40233
42.9671 -0.669614
45.8316 0.494388
48.696 3.06838
51.5605 0.416126
54.425 -1.82445
57.2895 -2.25953
60.1539 -0.849724
63.0184 0.28281
65.8829 3.31608
68.7474 -1.80722
71.6118 1.11668
74.4763 -0.268182
77.3408 2.27083
80.2053 3.74167
83.0697 2.65967
85.9342 -2.07952
88.7987 -1.81296
91.6632 3.36538
94.5276 -0.827982
97.3921 -1.41124
100.257 2.37709
103.121 0.192486
105.986 -0.626037
108.85 2.12535
111.714 0.865342
114.579 -0.241933
117.443 -2.17554
120.308 -0.309182
123.172 6.21823
126.037 1.41357
128.901 0.39702
131.766 -2.38914
134.63 1.02799
137.495 9.22536
140.359 0.588747
143.224 -1.29869
146.088 4.71807
148.953 0.506874
151.817 0.757306
154.682 6.38289
157.546 5.51763
160.411 -0.619145
163.275 -0.963172
166.139 -1.32077
169.004 1.96037
171.868 0.447607
174.733 -1.05266
177.597 1.72747
180.462 0.751727
183.326 1.58576
186.191 -1.22734
189.055 -0.0775653
191.92 3.63591
194.784 -0.429658
197.649 -0.872685
200.513 4.78774
203.378 4.18384
206.242 4.70071
209.107 6.43973
211.971 16.5605
214.836 7.36523
217.7 3.8899
220.564 -0.489331
223.429 -0.414042
226.293 3.42924
229.158 10.3655
232.022 3.83672
234.887 1.63612
237.751 1.41895
240.616 2.76034
243.48 4.88787
246.345 9.17044
249.209 6.03401
252.074 2.78776
254.938 -0.945994
257.803 -2.04967
260.667 0.295037
263.532 5.75243
266.396 -0.0588504
269.26 0.115961
272.125 -0.47804
274.989 4.30095
277.854 0.732024
280.718 -1.03263
283.583 -3.10059
286.447 -2.87764
289.312 1.81784
292.176 3.24844
295.041 4.41315
297.905 1.62544
300.77 0.785755
303.634 0.0186265
306.499 -1.17191
309.363 0.736196
312.228 -2.073
315.092 -2.39985
317.957 1.40149
320.821 0.231363
323.686 3.89674
326.55 1.21959
329.414 2.81756
332.279 -0.139319
335.143 1.16217
338.008 2.77599
340.872 3.70975
343.737 3.30401
346.601 0.52369
349.466 0.0179252
352.33 2.03468
355.195 -1.09652
358.059 -2.2458
360.924 5.20287
363.788 -1.42007
366.653 -1.02075
369.517 0.88625
372.382 1.2736
375.246 -1.97217
378.111 -0.120388
380.975 -0.656942
383.839 1.85959
386.704 -0.3322
389.568 1.25588
392.433 1.44312
395.297 2.68022
398.162 4.59675
401.026 3.72629
403.891 3.60153
406.755 -1.44401
409.62 -1.87114
412.484 3.37284
415.349 0.922405
418.213 4.37475e-05
421.078 2.41843
423.942 1.13967
426.807 -1.44755
429.671 0.954947
432.535 -1.00445
435.4 8.8878
438.264 0.743923
441.129 4.97344
443.993 2.55502
446.858 -3.02485
449.722 5.07992
452.587 1.38997
455.451 8.1279
458.316 3.98411
461.18 3.08693
464.045 1.77353
466.909 2.02627
469.774 6.48348
472.638 2.42068
475.503 2.81564
478.367 0.624021
481.232 0.400064
484.096 0.659405
486.961 4.28748
489.825 1.65437
492.689 2.61762
495.554 4.23621
498.418 2.9277
501.283 3.70328
504.147 1.1829
507.012 2.84457
509.876 1.55236
512.741 8.9701
515.605 -0.805674
518.47 -2.3549
521.334 0.921141
524.199 4.31084
527.063 5.29985
529.928 2.10282
532.792 -1.08332
535.657 -1.1719
538.521 -1.02718
541.385 1.35134
544.25 0.61047
547.115 3.47237
549.979 1.10512
552.843 1.26845
555.708 -0.292364
558.572 -0.919924
561.437 2.76557
564.301 0.498113
567.166 2.52785
570.03 3.46252
572.895 2.94223
575.759 2.24336
578.624 -1.11088
581.488 0.244749
584.353 -0.876411
587.217 4.18117
590.082 4.63331
592.946 1.51529
595.81 0.842206
598.675 2.43188
601.539 1.77853
604.404 1.23156
607.268 1.66783
610.133 1.85179
612.997 0.986086
615.862 1.14708
618.726 1.13417
621.591 0.359406
624.455 0.943853
627.32 0.958947
630.184 0.613331
633.049 0.811199
635.913 0.526239
638.778 1.19437
641.642 1.39057
644.507 1.12946
647.371 1.58878
650.235 1.63523
653.1 1.85443
655.964 1.85086
658.829 2.04059
661.693 2.12139
664.558 2.09696
667.422 1.89228
670.287 1.85875
673.151 2.11304
676.016 1.93473
678.88 2.15752
681.745 2.22752
684.609 2.18271
687.474 2.15464
690.338 2.29672
693.203 2.16264
696.067 2.24053
698.932 2.37859
701.796 2.30468
704.66 2.22332
707.525 2.03721
710.389 1.90542
713.254 1.81397
716.118 1.77908
718.983 1.71263
721.847 1.90013
724.712 1.94703
727.576 1.97281
730.441 2.12422
733.305 2.3364
736.17 2.39957
739.034 2.49992
741.899 2.69293
744.763 2.90599
747.628 3.13525
750.492 3.26343
753.357 3.4254
756.221 3.74544
759.086 4.0152
761.95 4.34558
764.814 4.60852
767.679 4.86977
770.543 5.20719
773.408 5.58197
776.272 5.74949
779.137 5.83449
782.001 5.95756
784.866 6.17509
787.73 6.12549
790.595 6.06025
793.459 5.66031
796.324 5.46373
799.188 5.12304
802.053 4.69318
804.917 4.19609
807.782 3.85933
810.646 3.55311
813.51 3.24792
816.375 3.03324
819.239 2.76544
822.104 2.41629
824.968 2.0489
827.833 1.8003
830.697 1.57458
833.562 1.45354
836.426 1.36876
839.291 1.3002
842.155 1.27077
845.02 1.27659
847.884 1.29914
850.749 1.35238
853.613 1.44513
856.478 1.54005
859.342 1.61552
862.207 1.68465
865.071 1.67838
867.935 1.67942
870.8 1.63228
873.664 1.57142
876.529 1.48768
879.393 1.36546
882.258 1.23242
885.122 1.13811
887.987 1.07467
890.851 1.02716
893.716 0.971244
896.58 0.973433
899.445 0.961572
902.309 0.948623
905.174 0.939942
908.038 0.941201
910.903 0.956926
913.767 0.985183
916.632 1.00872
919.496 1.02436
922.36 1.05319
925.225 1.11495
928.089 1.19108
930.954 1.25647
933.818 1.31858
936.683 1.41413
939.547 1.48836
942.412 1.60213
945.276 1.71239
948.141 1.82674
951.005 1.97281
953.87 2.12172
956.734 2.27556
959.599 2.43933
962.463 2.63701
965.328 2.84541
968.192 3.07392
971.057 3.34116
973.921 3.6162
976.785 3.9343
979.65 4.25071
982.514 4.59484
985.379 4.98939
988.243 5.38607
991.108 5.7565
993.972 6.05388
996.837 6.3187
999.701 6.52294
1002.57 6.72094
1005.43 6.8213
1008.29 6.80843
1011.16 6.59516
1014.02 6.29673
1016.89 6.01964
1019.75 5.76702
1022.62 5.63114
1025.48 5.46594
1028.35 5.32347
1031.21 5.26237
1034.07 5.25274
1036.94 5.23764
1039.8 5.22119
1042.67 5.23694
1045.53 5.25906
1048.4 5.2499
1051.26 5.23441
1054.13 5.26472
1056.99 5.2606
1059.86 5.29074
1062.72 5.30454
1065.58 5.24977
1068.45 5.22446
1071.31 5.23223
1074.18 5.16849
1077.04 5.07237
1079.91 4.97447
1082.77 4.85434
1085.64 4.78182
1088.5 4.60436
1091.36 4.3483
1094.23 4.11391
1097.09 3.89606
1099.96 3.6029
1102.82 3.30272
1105.69 3.04919
1108.55 2.85716
1111.42 2.66474
1114.28 2.51638
1117.14 2.37093
1120.01 2.2512
1122.87 2.16655
1125.74 2.11617
1128.6 2.04078
1131.47 2.01084
1134.33 1.94287
1137.2 1.90815
1140.06 1.902
1142.92 1.86171
1145.79 1.82275
1148.65 1.81382
1151.52 1.7704
1154.38 1.732
1157.25 1.72738
1160.11 1.68761
1162.98 1.67685
1165.84 1.66483
1168.71 1.63305
1171.57 1.63537
1174.43 1.61355
1177.3 1.56876
1180.16 1.52558
1183.03 1.56518
1185.89 1.52899
1188.76 1.51506
1191.62 1.48287
1194.49 1.45715
1197.35 1.46401
1200.21 1.44023
1203.08 1.4214
1205.94 1.39595
1208.81 1.40447
1211.67 1.38783
1214.54 1.3577
1217.4 1.34311
1220.27 1.31315
1223.13 1.29778
1225.99 1.25385
1228.86 1.23345
1231.72 1.20068
1234.59 1.17958
1237.45 1.18269
1240.32 1.15817
1243.18 1.20637
1246.05 1.30411
1248.91 1.47399
1251.78 1.92257
1254.64 2.72299
1257.5 3.26968
1260.37 2.85783
1263.23 1.98826
1266.1 1.26166
1268.96 0.842591
1271.83 0.629843
1274.69 0.512545
1277.56 0.440351
1280.42 0.374405
1283.28 0.348819
1286.15 0.326895
1289.01 0.329165
1291.88 0.299656
1294.74 0.297359
1297.61 0.273443
1300.47 0.287943
1303.34 0.279953
1306.2 0.266388
1309.06 0.247914
1311.93 0.254471
1314.79 0.254333
1317.66 0.256304
1320.52 0.246666
1323.39 0.236355
1326.25 0.23376
1329.12 0.216492
1331.98 0.231237
1334.84 0.243489
1337.71 0.244781
1340.57 0.233144
1343.44 0.237036
1346.3 0.224508
1349.17 0.235476
1352.03 0.229063
1354.9 0.228394
1357.76 0.236307
1360.62 0.256323
1363.49 0.247421
1366.35 0.243285
1369.22 0.258355
1372.08 0.236491
1374.95 0.250497
1377.81 0.255302
1380.68 0.255451
1383.54 0.259102
1386.41 0.277669
1389.27 0.284488
1392.13 0.312828
1395 0.364326
1397.86 0.386548
1400.73 0.359377
1403.59 0.359897
1406.46 0.367475
1409.32 0.3866
1412.19 0.400534
1415.05 0.407286
1417.91 0.395778
1420.78 0.326438
1423.64 0.286972
1426.51 0.268007
1429.37 0.271669
1432.24 0.25425
1435.1 0.287802
1437.97 0.273128
1440.83 0.265468
1443.69 0.275728
1446.56 0.266803
1449.42 0.258292
1452.29 0.273928
1455.15 0.335001
1458.02 0.288046
1460.88 0.236808
1463.75 0.245343
1466.61 0.22956
1469.47 0.248532
1472.34 0.270181
1475.2 0.232463
1478.07 0.200227
1480.93 0.197135
1483.8 0.201178
1486.66 0.232976
1489.53 0.25244
1492.39 0.196741
1495.26 0.259134
1498.12 0.235325
1500.98 0.217437
1503.85 0.258577
1506.71 0.313274
1509.58 0.240732
1512.44 0.247152
1515.31 0.255295
1518.17 0.263857
1521.04 0.292535
1523.9 0.248687
1526.76 0.230704
1529.63 0.233557
1532.49 0.280095
1535.36 0.231902
1538.22 0.317838
1541.09 0.31531
1543.95 0.263152
1546.82 0.220213
1549.68 0.243486
1552.54 0.243744
1555.41 0.268146
1558.27 0.353593
1561.14 0.227311
1564 0.211652
1566.87 0.231227
1569.73 0.233967
1572.6 0.215045
1575.46 0.261068
1578.33 0.202143
1581.19 0.195748
1584.05 0.212553
1586.92 0.2015
1589.78 0.215922
1592.65 0.22468
1595.51 0.228675
1598.38 0.223877
1601.24 0.229963
1604.11 0.235166
1606.97 0.22813
1609.83 0.237109
1612.7 0.229691
1615.56 0.260306
1618.43 0.273849
1621.29 0.26212
1624.16 0.261203
1627.02 0.249217
1629.89 0.249315
1632.75 0.278052
1635.61 0.298078
1638.48 0.260448
1641.34 0.233674
1644.21 0.255048
1647.07 0.295393
1649.94 0.271152
1652.8 0.317686
1655.67 0.225489
1658.53 0.21344
1661.39 0.218591
1664.26 0.187827
1667.12 0.229734
1669.99 0.248218
1672.85 0.241085
1675.72 0.233974
1678.58 0.217797
1681.45 0.247364
1684.31 0.279453
1687.18 0.191017
1690.04 0.198776
1692.9 0.198554
1695.77 0.255698
1698.63 0.276532
1701.5 0.218907
1704.36 0.192889
1707.23 0.180095
1710.09 0.179157
1712.96 0.187329
1715.82 0.241203
1718.68 0.216222
1721.55 0.179901
1724.41 0.162848
1727.28 0.181735
1730.14 0.229112
1733.01 0.2704
1735.87 0.184038
1738.74 0.200951
1741.6 0.188752
1744.46 0.18436
1747.33 0.20232
1750.19 0.202181
1753.06 0.15939
1755.92 0.179744
1758.79 0.183929
1761.65 0.197034
1764.52 0.161244
1767.38 0.187339
1770.24 0.202612
1773.11 0.187279
1775.97 0.180484
1778.84 0.181324
1781.7 0.171886
1784.57 0.16558
1787.43 0.159183
1790.3 0.206996
1793.16 0.192831
1796.02 0.168914
1798.89 0.164794
1801.75 0.15925
1804.62 0.147813
1807.48 0.149267
1810.35 0.151893
1813.21 0.152449
1816.08 0.159549
1818.94 0.153696
1821.81 0.158115
1824.67 0.171903
1827.53 0.185258
1830.4 0.173408
1833.26 0.160664
1836.13 0.162846
1838.99 0.162849
1841.86 0.185422
1844.72 0.175172
1847.59 0.152324
1850.45 0.153836
1853.31 0.161471
1856.18 0.146155
1859.04 0.166244
1861.91 0.171382
1864.77 0.180654
1867.64 0.180285
1870.5 0.166382
1873.37 0.17485
1876.23 0.159846
1879.09 0.140678
1881.96 0.166054
1884.82 0.163143
1887.69 0.183047
1890.55 0.165745
1893.42 0.185737
1896.28 0.154298
1899.15 0.159072
1902.01 0.159048
1904.87 0.15232
1907.74 0.157733
1910.6 0.170005
1913.47 0.159384
1916.33 0.166208
1919.2 0.193013
1922.06 0.184031
1924.93 0.17264
1927.79 0.173566
1930.66 0.190701
1933.52 0.173852
1936.38 0.163541
1939.25 0.188024
1942.11 0.176255
1944.98 0.190535
1947.84 0.190402
1950.71 0.199585
1953.57 0.18441
1956.44 0.15155
1959.3 0.194031
1962.16 0.175807
1965.03 0.164074
1967.89 0.184038
1970.76 0.184327
1973.62 0.176275
1976.49 0.168836
1979.35 0.193984
1982.22 0.212332
1985.08 0.161986
1987.94 0.182422
1990.81 0.15965
1993.67 0.1974
1996.54 0.175461
1999.4 0.184293
2002.27 0.200238
2005.13 0.158707
2008 0.185864
2010.86 0.154238
2013.72 0.17717
2016.59 0.205243
2019.45 0.164999
2022.32 0.205711
2025.18 0.193576
2028.05 0.146789
2030.91 0.193873
2033.78 0.156142
2036.64 0.175403
2039.51 0.174903
2042.37 0.126911
2045.23 0.164399
2048.1 0.177767
2050.96 0.139949
2053.83 0.185709
2056.69 0.178279
2059.56 0.156137
2062.42 0.193105
2065.29 0.186942
2068.15 0.192964
2071.01 0.176822
2073.88 0.133866
2076.74 0.144741
2079.61 0.147447
2082.47 0.168419
2085.34 0.166752
2088.2 0.178948
2091.07 0.175981
2093.93 0.16842
2096.79 0.135214
2099.66 0.135923
2102.52 0.157946
2105.39 0.168604
2108.25 0.180476
2111.12 0.157702
2113.98 0.168134
2116.85 0.168173
2119.71 0.162477
2122.58 0.15396
2125.44 0.141551
2128.3 0.131235
2131.17 0.141999
2134.03 0.173224
2136.9 0.182922
2139.76 0.16625
2142.63 0.144052
2145.49 0.156496
2148.36 0.148135
2151.22 0.148243
2154.08 0.164155
2156.95 0.151823
2159.81 0.198986
2162.68 0.178727
2165.54 0.197768
2168.41 0.168418
2171.27 0.17725
2174.14 0.20968
2177 0.175904
2179.86 0.139557
2182.73 0.186072
2185.59 0.168798
2188.46 0.175116
2191.32 0.183859
2194.19 0.167933
2197.05 0.153889
2199.92 0.138162
2202.78 0.163272
2205.64 0.16363
2208.51 0.171958
2211.37 0.170559
2214.24 0.159231
2217.1 0.160127
2219.97 0.142106
2222.83 0.16951
2225.7 0.187737
2228.56 0.169314
2231.43 0.125495
2234.29 0.134692
2237.15 0.156845
2240.02 0.159436
2242.88 0.157785
2245.75 0.172949
2248.61 0.163628
2251.48 0.162775
2254.34 0.135346
2257.21 0.120319
2260.07 0.140384
2262.93 0.147192
2265.8 0.146325
2268.66 0.146124
2271.53 0.146734
2274.39 0.142633
2277.26 0.157875
2280.12 0.171965
2282.99 0.155222
2285.85 0.156858
2288.71 0.151972
2291.58 0.119178
2294.44 0.141924
2297.31 0.15657
2300.17 0.142745
2303.04 0.148294
2305.9 0.138702
2308.77 0.149085
2311.63 0.148729
2314.49 0.148061
2317.36 0.153513
2320.22 0.154139
2323.09 0.158182
2325.95 0.167197
2328.82 0.144896
2331.68 0.137095
2334.55 0.15719
2337.41 0.158416
2340.28 0.160262
2343.14 0.154469
2346 0.140355
2348.87 0.131065
2351.73 0.145373
2354.6 0.157892
2357.46 0.157622
2360.33 0.155106
2363.19 0.148202
2366.06 0.151285
2368.92 0.165848
2371.78 0.166715
2374.65 0.151055
2377.51 0.151014
2380.38 0.149869
2383.24 0.129649
2386.11 0.118521
2388.97 0.126565
2391.84 0.127918
2394.7 0.122659
2397.56 0.114207
2400.43 0.12966
2403.29 0.116831
2406.16 0.117054
2409.02 0.118452
2411.89 0.115991
2414.75 0.130976
2417.62 0.112871
2420.48 0.125038
2423.34 0.132218
2426.21 0.13099
2429.07 0.138402
2431.94 0.117783
2434.8 0.135574
2437.67 0.134256
2440.53 0.120323
2443.4 0.136409
2446.26 0.151256
2449.12 0.148185
2451.99 0.154675
2454.85 0.128421
2457.72 0.117766
2460.58 0.14724
2463.45 0.12004
2466.31 0.11914
2469.18 0.123675
2472.04 0.136997
2474.91 0.134146
2477.77 0.130781
2480.63 0.125561
2483.5 0.140588
2486.36 0.121995
2489.23 0.127458
2492.09 0.139404
2494.96 0.163912
2497.82 0.144912
2500.69 0.143335
2503.55 0.127048
2506.41 0.140353
2509.28 0.161513
2512.14 0.137177
2515.01 0.115833
2517.87 0.119867
2520.74 0.119552
2523.6 0.115114
2526.47 0.133517
2529.33 0.140229
2532.19 0.13791
2535.06 0.140041
2537.92 0.159902
2540.79 0.133928
2543.65 0.115982
2546.52 0.121818
2549.38 0.121802
2552.25 0.138826
2555.11 0.135464
2557.98 0.161039
2560.84 0.128433
2563.7 0.132643
2566.57 0.134024
2569.43 0.124975
2572.3 0.149125
2575.16 0.133575
2578.03 0.133508
2580.89 0.1213
2583.76 0.136701
2586.62 0.129478
2589.48 0.130815
2592.35 0.132717
2595.21 0.123346
2598.08 0.107007
2600.94 0.120421
2603.81 0.120353
2606.67 0.115985
2609.54 0.1393
2612.4 0.144736
2615.26 0.140583
2618.13 0.127007
2620.99 0.135443
2623.86 0.136408
2626.72 0.129233
2629.59 0.13561
2632.45 0.102851
2635.32 0.106958
2638.18 0.131061
2641.04 0.117251
2643.91 0.115274
2646.77 0.110506
2649.64 0.129931
2652.5 0.12715
2655.37 0.123215
2658.23 0.117857
2661.1 0.125823
2663.96 0.133094
2666.82 0.121309
2669.69 0.126392
2672.55 0.126941
2675.42 0.129048
2678.28 0.131511
2681.15 0.133137
2684.01 0.117306
2686.88 0.119062
2689.74 0.127
2692.61 0.129048
2695.47 0.131434
2698.33 0.125411
2701.2 0.122258
2704.06 0.117657
2706.93 0.120068
2709.79 0.135179
2712.66 0.116542
2715.52 0.123567
2718.39 0.116873
2721.25 0.122313
2724.11 0.116538
2726.98 0.135137
2729.84 0.13025
2732.71 0.13239
2735.57 0.118913
2738.44 0.105803
2741.3 0.124184
2744.17 0.126546
2747.03 0.121261
2749.89 0.121137
2752.76 0.113823
2755.62 0.115366
2758.49 0.118336
2761.35 0.125981
2764.22 0.133836
2767.08 0.12641
2769.95 0.137998
2772.81 0.133725
2775.68 0.127155
2778.54 0.124801
2781.4 0.141874
2784.27 0.154106
2787.13 0.134438
2790 0.129259
2792.86 0.150472
2795.73 0.156758
2798.59 0.144578
2801.46 0.152255
2804.32 0.153055
2807.18 0.15934
2810.05 0.164954
2812.91 0.151469
2815.78 0.157372
2818.64 0.145181
2821.51 0.156761
2824.37 0.156814
2827.24 0.163657
2830.1 0.137417
2832.96 0.147243
2835.83 0.166696
2838.69 0.166037
2841.56 0.1574
2844.42 0.171293
2847.29 0.165488
2850.15 0.16624
2853.02 0.178393
2855.88 0.171854
2858.74 0.172724
2861.61 0.163074
2864.47 0.155865
2867.34 0.164831
2870.2 0.159188
2873.07 0.168217
2875.93 0.176881
2878.8 0.179953
2881.66 0.183283
2884.53 0.206657
2887.39 0.204124
2890.25 0.215958
2893.12 0.228593
2895.98 0.244225
2898.85 0.248408
2901.71 0.262418
2904.58 0.278544
2907.44 0.276439
2910.31 0.268143
2913.17 0.241556
2916.03 0.255603
2918.9 0.224494
2921.76 0.22161
2924.63 0.230267
2927.49 0.23177
2930.36 0.237614
2933.22 0.249144
2936.09 0.245536
2938.95 0.263425
2941.81 0.277037
2944.68 0.342378
2947.54 0.385379
2950.41 0.468421
2953.27 0.612379
2956.14 0.808264
2959 1.00336
2961.87 1.05562
2964.73 0.971374
2967.59 0.755221
2970.46 0.571585
2973.32 0.452217
2976.19 0.359507
2979.05 0.307221
2981.92 0.263305
2984.78 0.248832
2987.65 0.21911
2990.51 0.202727
2993.38 0.201454
2996.24 0.1845
2999.1 0.188064
3001.97 0.193668
3004.83 0.18872
3007.7 0.160606
3010.56 0.171789
3013.43 0.168551
3016.29 0.160728
3019.16 0.183215
3022.02 0.185688
3024.88 0.183172
3027.75 0.182023
3030.61 0.179386
3033.48 0.166849
3036.34 0.164976
3039.21 0.172418
3042.07 0.165551
3044.94 0.159122
3047.8 0.164902
3050.66 0.154945
3053.53 0.173867
3056.39 0.174869
3059.26 0.167949
3062.12 0.180622
3064.99 0.180779
3067.85 0.162917
3070.72 0.168413
3073.58 0.178719
3076.44 0.174106
3079.31 0.170209
3082.17 0.169379
3085.04 0.173288
3087.9 0.171549
3090.77 0.18197
3093.63 0.175431
3096.5 0.165584
3099.36 0.167091
3102.23 0.183079
3105.09 0.17881
3107.95 0.174662
3110.82 0.185705
3113.68 0.182949
3116.55 0.174024
3119.41 0.184694
3122.28 0.168222
3125.14 0.175759
3128.01 0.19071
3130.87 0.185272
3133.73 0.190927
3136.6 0.186468
3139.46 0.176744
3142.33 0.178256
3145.19 0.201964
3148.06 0.182629
3150.92 0.17731
3153.79 0.168592
3156.65 0.202535
3159.51 0.176238
3162.38 0.169014
3165.24 0.157677
3168.11 0.209874
3170.97 0.196495
3173.84 0.204089
3176.7 0.200405
3179.57 0.188658
3182.43 0.188776
3185.29 0.190482
3188.16 0.161719
3191.02 0.164225
3193.89 0.163085
3196.75 0.164083
3199.62 0.199612
3202.48 0.196812
3205.35 0.189038
3208.21 0.184465
3211.07 0.190347
3213.94 0.171055
3216.8 0.17715
3219.67 0.186357
3222.53 0.205623
3225.4 0.202404
3228.26 0.204826
3231.13 0.174133
3233.99 0.171153
3236.86 0.184734
3239.72 0.197353
3242.58 0.194336
3245.45 0.194794
3248.31 0.195478
3251.18 0.183358
3254.04 0.195841
3256.91 0.178529
3259.77 0.189108
3262.64 0.181264
3265.5 0.188661
3268.36 0.177145
3271.23 0.171612
3274.09 0.19642
3276.96 0.197707
3279.82 0.201808
3282.69 0.211611
3285.55 0.180808
3288.42 0.175714
3291.28 0.222323
3294.14 0.187046
3297.01 0.158077
3299.87 0.171331
3302.74 0.196854
3305.6 0.207364
3308.47 0.19726
3311.33 0.183713
3314.2 0.157442
3317.06 0.170656
3319.93 0.183091
3322.79 0.197887
3325.65 0.204952
3328.52 0.210008
3331.38 0.181187
3334.25 0.177473
3337.11 0.198592
3339.98 0.195101
3342.84 0.198634
3345.71 0.173718
3348.57 0.218259
3351.43 0.184128
3354.3 0.17967
3357.16 0.19663
3360.03 0.180119
3362.89 0.18211
3365.76 0.178535
3368.62 0.189317
3371.49 0.183903
3374.35 0.185324
3377.21 0.200048
3380.08 0.231791
3382.94 0.182422
3385.81 0.171188
3388.67 0.193791
3391.54 0.207773
3394.4 0.183959
3397.27 0.186343
3400.13 0.196667
3402.99 0.197748
3405.86 0.197743
3408.72 0.19355
3411.59 0.172102
3414.45 0.166637
3417.32 0.172712
3420.18 0.196706
3423.05 0.217796
3425.91 0.190738
3428.77 0.188833
3431.64 0.192926
3434.5 0.166568
3437.37 0.201687
3440.23 0.165548
3443.1 0.197022
3445.96 0.213995
3448.83 0.206184
3451.69 0.193681
3454.56 0.227698
3457.42 0.178203
3460.28 0.166232
3463.15 0.187649
3466.01 0.200816
3468.88 0.186948
3471.74 0.190478
3474.61 0.188609
3477.47 0.152864
3480.34 0.177413
3483.2 0.163298
3486.06 0.165068
3488.93 0.203271
3491.79 0.19528
3494.66 0.195109
3497.52 0.177771
3500.39 0.177734
3503.25 0.141764
3506.12 0.167066
3508.98 0.190634
3511.84 0.182402
3514.71 0.177224
3517.57 0.170226
3520.44 0.167218
3523.3 0.157055
3526.17 0.197541
3529.03 0.160864
3531.9 0.172511
3534.76 0.176059
3537.62 0.177026
3540.49 0.185459
3543.35 0.198114
3546.22 0.16566
3549.08 0.18677
3551.95 0.156816
3554.81 0.129902
3557.68 0.145475
3560.54 0.14845
3563.41 0.200085
3566.27 0.192016
3569.13 0.192366
3572 0.17838
3574.86 0.133538
3577.73 0.130163
3580.59 0.171091
3583.46 0.163387
3586.32 0.204942
3589.19 0.181596
3592.05 0.204892
3594.91 0.202173
3597.78 0.184951
3600.64 0.180981
3603.51 0.150132
3606.37 0.155338
3609.24 0.162152
3612.1 0.160398
3614.97 0.142302
3617.83 0.193816
3620.69 0.172976
3623.56 0.15919
3626.42 0.210018
3629.29 0.185524
3632.15 0.131394
3635.02 0.14065
3637.88 0.125667
3640.75 0.14464
3643.61 0.15835
3646.47 0.221016
3649.34 0.210519
3652.2 0.146202
3655.07 0.174731
3657.93 0.13788
3660.8 0.130792
3663.66 0.153798
3666.53 0.173666
3669.39 0.18054
3672.26 0.199237
3675.12 0.242538
3677.98 0.112318
3680.85 0.0947438
3683.71 0.125552
3686.58 0.156908
3689.44 0.131572
3692.31 0.098125
3695.17 0.140516
3698.04 0.115604
3700.9 0.13364
3703.76 0.0949536
3706.63 0.128647
3709.49 0.164349
3712.36 0.10804
3715.22 0.113736
3718.09 0.101936
3720.95 0.130599
3723.82 0.128389
3726.68 0.115272
3729.54 0.150038
3732.41 0.180307
3735.27 0.153163
3738.14 0.104648
3741 0.14689
3743.87 0.164101
3746.73 0.15204
3749.6 0.24599
3752.46 0.156353
3755.32 0.139869
3758.19 0.14545
3761.05 0.0836923
3763.92 0.139856
3766.78 0.114257
3769.65 0.0875823
3772.51 0.0789782
3775.38 0.104146
3778.24 0.142249
3781.11 0.126024
3783.97 0.125291
3786.83 0.0878044
3789.7 0.0899096
3792.56 0.0758837
3795.43 0.115371
3798.29 0.12158
3801.16 0.157946
3804.02 0.138756
3806.89 0.151189
3809.75 0.100789
3812.61 0.129441
3815.48 0.0951994
3818.34 0.154501
3821.21 0.139824
3824.07 0.0914313
3826.94 0.100069
3829.8 0.106081
3832.67 0.104526
3835.53 0.161757
3838.39 0.141106
3841.26 0.132171
3844.12 0.0924545
3846.99 0.110002
3849.85 0.134533
3852.72 0.191154
3855.58 0.105482
3858.45 0.103596
3861.31 0.116066
3864.17 0.108806
3867.04 0.107227
3869.9 0.0760428
3872.77 0.144313
3875.63 0.0991929
3878.5 0.128301
3881.36 0.102652
3884.23 0.138591
3887.09 0.076951
3889.96 0.0937597
3892.82 0.12262
3895.68 0.105677
3898.55 0.096737
3901.41 0.144828
3904.28 0.0967243
3907.14 0.0869972
3910.01 0.0768216
3912.87 0.0770964
3915.74 0.0962362
3918.6 0.0802841
3921.46 0.0494812
3924.33 0.0393729
3927.19 0.0778622
3930.06 0.0970221
3932.92 0.0938491
3935.79 0.0992721
3938.65 0.122051
3941.52 0.085037
3944.38 0.0650813
3947.24 0.0777075
3950.11 0.103806
3952.97 0.1007
3955.84 0.116814
3958.7 0.0840649
3961.57 0.0784884
3964.43 0.0519022
3967.3 0.0868435
3970.16 0.114979
3973.02 0.0727104
3975.89 0.0670178
3978.75 0.0854758
3981.62 0.0939623
3984.48 0.0768833
3987.35 0.064631
3990.21 0.0914773
3993.08 0.0948017
3995.94 0.0959528
3998.81 0.0818968
4001.67 0.0645167
4004.53 0.07881
4007.4 0.0754038
4010.26 0.0907467
4013.13 0.12025
4015.99 0.0542685
4018.86 0.084757
4021.72 0.0916077
4024.59 0.0620983
4027.45 0.081933
4030.31 0.0951264
4033.18 0.0572104
4036.04 0.0305553
4038.91 0.0822002
4041.77 0.0443174
4044.64 0.0851709
4047.5 0.112369
4050.37 0.123949
4053.23 0.0799038
4056.09 0.0586616
4058.96 0.0566426
4061.82 0.113312
4064.69 0.0830516
4067.55 0.0669847
4070.42 0.0625041
4073.28 0.0524967
4076.15 0.0690096
4079.01 0.0570748
4081.88 0.0532409
4084.74 0.0991969
4087.6 0.112241
4090.47 0.0772595
4093.33 0.111643
4096.2 0.0819678
4099.06 0.0639621
4101.93 0.0355355
4104.79 0.0801137
4107.66 0.0670807
4110.52 0.0577749
4113.38 0.0757773
4116.25 0.109734
4119.11 0.097829
4121.98 0.100312
4124.84 0.121129
4127.71 0.1108
4130.57 0.0628699
4133.44 0.0547178
4136.3 0.0821503
4139.16 0.0355914
4142.03 0.0497067
4144.89 0.0449349
4147.76 0.0501539
4150.62 0.0996988
4153.49 0.083962
4156.35 0.0835411
4159.22 0.0759261
4162.08 0.13572
4164.94 0.109307
4167.81 0.104084
4170.67 0.0705085
4173.54 0.0995314
4176.4 0.113784
4179.27 0.077605
4182.13 0.109106
4185 0.0712921
4187.86 0.0425047
4190.73 0.0544499
4193.59 0.0269599
4196.45 0.0624282
4199.32 0.049475
4202.18 0.0700599
4205.05 0.090684
4207.91 0.104286
4210.78 0.110534
4213.64 0.130804
4216.5 0.103467
4219.37 0.0928216
4222.23 0.0423463
4225.1 0.0408255
4227.96 0.08158
4230.83 0.0769676
4233.69 0.0804726
4236.56 0.0865655
4239.42 0.106286
4242.29 0.108004
4245.15 0.0600898
4248.01 0.0318639
4250.88 0.0585024
4253.74 0.0862993
4256.61 0.0988619
4259.47 0.0471199
4262.34 0.0703759
4265.2 0.0919421
4268.07 0.0768364
4270.93 0.0740557
4273.79 0.0497012
4276.66 0.0981356
4279.52 0.109563
4282.39 0.0922602
4285.25 0.0697766
4288.12 0.0785978
4290.98 0.0555648
4293.85 0.0799083
4296.71 0.0566961
4299.57 0.110717
4302.44 0.101586
4305.3 0.0897989
4308.17 0.141095
4311.03 0.10109
4313.9 0.0740976
4316.76 0.0645713
4319.63 0.0713847
4322.49 0.0710452
4325.36 0.0488801
4328.22 0.0911749
4331.08 0.149952
4333.95 0.110577
4336.81 0.145073
4339.68 0.0762473
4342.54 0.114927
4345.41 0.0613978
4348.27 0.0641163
4351.14 0.024596
4354 0.0582849
4356.86 0.0582838
4359.73 0.109361
4362.59 0.104682
4365.46 0.129483
4368.32 0.0768904
4371.19 0.11693
4374.05 0.0833397
4376.92 0.129437
4379.78 0.10138
4382.64 0.066256
4385.51 0.081565
4388.37 0.0948904
4391.24 0.0684432
4394.1 0.132432
4396.97 0.103232
4399.83 0.116375
4402.7 0.0964683
4405.56 0.0942239
4408.43 0.0853097
4411.29 0.0757399
4414.15 0.0944903
4417.02 0.112726
4419.88 0.0913496
4422.75 0.0717363
4425.61 0.0829001
4428.48 0.0495446
4431.34 0.0613369
4434.21 0.0521163
4437.07 0.070303
4439.93 0.0864295
4442.8 0.12897
4445.66 0.0557599
4448.53 0.103868
4451.39 0.111457
4454.26 0.104758
4457.12 0.0916219
4459.99 0.0705296
4462.85 0.105311
4465.71 0.120572
4468.58 0.0702075
4471.44 0.0833447
4474.31 0.0823105
4477.17 0.0611355
4480.04 0.0622233
4482.9 0.118696
4485.77 0.0826629
4488.63 0.104249
4491.49 0.0570921
4494.36 0.0876892
4497.22 0.0919548
4500.09 0.0842665
4502.95 0.0803323
4505.82 0.10891
4508.68 0.108921
4511.55 0.0738414
4514.41 0.0585323
4517.27 0.133376
4520.14 0.131877
4523 0.0732556
4525.87 0.0365976
4528.73 0.106407
4531.6 0.127233
4534.46 0.123924
4537.33 0.0374714
4540.19 0.103261
4543.06 0.114181
4545.92 0.0980368
4548.78 0.0758819
4551.65 0.13022
4554.51 0.0776785
4557.38 0.0502893
4560.24 0.117217
4563.11 0.195497
4565.97 0.111608
4568.84 0.0816473
4571.7 0.120113
4574.56 0.0896842
4577.43 0.105106
4580.29 0.0754873
4583.16 0.0552203
4586.02 0.0526062
4588.89 0.0664839
4591.75 0.128168
4594.62 0.0888606
4597.48 0.0843668
4600.34 0.143802
4603.21 0.176973
4606.07 0.0412679
4608.94 0.0723277
4611.8 0.06879
4614.67 0.100053
4617.53 0.145034
4620.4 0.0982089
4623.26 0.0776008
4626.12 0.16846
4628.99 0.0405804
4631.85 0.0425003
4634.72 0.0630251
4637.58 0.13196
4640.45 0.155481
4643.31 0.0642461
4646.18 0.102232
4649.04 0.145824
4651.91 0.15468
4654.77 0.09037
4657.63 0.0652332
4660.5 0.0571886
4663.36 0.196749
4666.23 0.17296
4669.09 0.0437074
4671.96 0.0880157
4674.82 0.107217
4677.69 0.105781
4680.55 0.0865652
4683.41 0.221565
4686.28 0.143758
4689.14 0.117639
4692.01 0.138177
4694.87 0.0536156
4697.74 0.0472777
4700.6 0.00818016
4703.47 0.167912
4706.33 0.0518889
4709.19 0.0666545
4712.06 0.156425
4714.92 0.142404
4717.79 0.0804062
4720.65 0.0298977
4723.52 0.0337593
4726.38 0.22341
4729.25 0.382855
4732.11 0.208537
4734.97 -0.0240368
4737.84 0.0470134
4740.7 0.0456401
4743.57 0.0506473
4746.43 0.00628811
4749.3 0.140426
4752.16 0.274322
4755.03 0.25485
4757.89 -0.0604023
4760.76 -0.0389109
4763.62 0.164383
4766.48 0.179402
4769.35 0.298321
4772.21 0.0887916
4775.08 0.118916
4777.94 0.0795998
4780.81 0.149093
4783.67 0.193416
4786.54 0.419165
4789.4 1.03544e-06
4792.26 -0.00533338
4795.13 0.0616535
4797.99 0.17327
4800.86 0.209186
4803.72 0.0179013
4806.59 0.18625
4809.45 0.105295
4812.32 0.351818
4815.18 0.0670822
4818.04 0.39557
4820.91 0.264149
4823.77 0.0450885
4826.64 0.235835
4829.5 0.221315
4832.37 0.0425434
4835.23 0.190231
4838.1 0.436706
4840.96 0.638214
4843.83 0.426519
4846.69 -0.149115
4849.55 -0.0275205
4852.42 0.430749
4855.28 0.549084
4858.15 0.602906
4861.01 0.300935
4863.88 0.074171
4866.74 0.28667
4869.6 0.000454322
4872.47 0.0253775
4875.33 -0.251069
4878.2 -0.262248
4881.06 -0.261099
4883.93 0.372871
4886.79 0.490491
4889.66 0.43392
4892.52 0.283402
4895.39 0.847686
4898.25 1.05156
4901.11 0.311687
4903.98 -0.272578
4906.84 0.329753
4909.71 -0.198448
4912.57 0.3395
4915.44 0.519564
4918.3 0.0433507
4921.17 0.179581
4924.03 0.923926
4926.89 0.671341
4929.76 1.46116
4932.62 0.171956
4935.49 0.686182
4938.35 0.862126
4941.22 0.270445
4944.08 0.949146
4946.95 0.435117
4949.81 -0.373857
4952.67 -0.238435
4955.54 -0.155917
4958.4 2.16329
4961.27 2.58933
4964.13 0.973747
4967 2.03736
4969.86 0.681875
4972.73 1.22552
4975.59 2.49567
4978.46 0.66793
4981.32 1.98893
4984.18 3.6521
4987.05 -0.751306
4989.91 0.531054
4992.78 0.49243
4995.64 2.0249
4998.51 0.0132586
5001.37 0.826952
5004.24 1.82313
5007.1 4.28481
5009.96 0.549185
5012.83 0.857994
5015.69 1.13405
5018.56 0.694449
5021.42 8.58193
5024.29 1.58516
5027.15 4.27581
5030.02 -0.176341
5032.88 4.7228
5035.75 4.44584
5038.61 0.368893
5041.47 2.57859
5044.34 0.500237
5047.2 3.47447
5050.07 -0.870185
5052.93 -1.817
5055.8 -1.55369
5058.66 -0.321109
5061.52 4.51522
5064.39 1.07082
5067.25 0.803786
5070.12 -1.81678
5072.98 -2.18659
5075.85 2.81554
5078.71 0.236915
5081.58 0.42075
5084.44 0.0627641
5087.31 -0.81127
5090.17 1.43365
5093.03 14.0214
5095.9 2.64675
5098.76 -0.574643
5101.63 -0.168186
5104.49 1.9484
5107.36 6.56282
5110.22 3.47919
5113.09 2.44532
5115.95 -1.83193
5118.81 -2.41584
5121.68 0.0292375
5124.54 -0.14084
5127.41 1.59355
5130.27 -0.373619
5133.14 1.34844
5136 -1.50401
5138.87 -0.617081
5141.73 -2.50638
5144.59 -0.209275
5147.46 -0.38621
5150.32 0.313049
5153.19 -0.335808
5156.05 -2.75136
5158.92 0.0698745
5161.78 -0.958155
5164.65 -1.24749
5167.51 4.63647
5170.38 0.145441
5173.24 2.52075
5176.1 -1.30218
5178.97 -0.118848
5181.83 -0.779336
5184.7 0.322692
5187.56 5.03125
5190.43 -2.63554
5193.29 -0.467072
5196.16 0.265713
5199.02 1.98539
5201.88 -0.251557
5204.75 -0.92824
5207.61 0.299791
5210.48 -1.04003
5213.34 -1.3503
5216.21 -0.530598
5219.07 2.53934
5221.94 2.35449
5224.8 -0.876753
5227.66 -2.19558
5230.53 -1.11963
5233.39 -1.77768
5236.26 -0.729299
5239.12 2.68764
5241.99 -1.43008
5244.85 2.00855
5247.72 1.78762
5250.58 0.778343
5253.44 0.837901
5256.31 1.62787
5259.17 0.139504
5262.04 -0.662138
5264.9 -1.35546
5267.77 3.31944
5270.63 1.0485
5273.5 -0.706098
5276.36 -0.64604
5279.23 -0.436946
5282.09 -1.20922
5284.95 -1.7018
5287.82 0.997183
5290.68 -2.57592
5293.55 -1.79371
5296.41 -1.79919
5299.28 -0.335593
5302.14 3.02309
5305.01 0.463061
5307.87 -2.23161
5310.73 -1.78883
5313.6 1.51396
5316.46 -0.40854
5319.33 -1.36691
5322.19 0.136583
5325.06 0.428396
5327.92 0.457047
5330.79 2.76365
5333.65 -0.769251
5336.51 1.38779
5339.38 -0.0128902
5342.24 0.470524
5345.11 0.0574821
5347.97 3.62852
5350.84 0.298494
5353.7 0.0663031
5356.57 -1.62121
5359.43 -1.21998
5362.29 0.0751467
5365.16 0.454397
5368.02 0.538798
5370.89 -1.0563
5373.75 -0.244257
5376.62 1.22831
5379.48 -2.08543
5382.35 -0.818098
5385.21 -1.4175
5388.08 -1.07533
5390.94 -1.45756
5393.8 -1.27576
5396.67 -0.728916
5399.53 3.3818
5402.4 0.802967
5405.26 -1.5244
5408.13 -1.89627
5410.99 -0.376796
5413.86 0.310103
5416.72 0.365368
5419.58 0.379858
5422.45 -1.97953
5425.31 2.02287
5428.18 -1.6242
5431.04 -1.02847
5433.91 0.475947
5436.77 -1.40004
5439.64 -1.85506
5442.5 -0.483935
5445.36 0.91291
5448.23 -1.77719
5451.09 0.257184
5453.96 0.335096
5456.82 -1.27598
5459.69 1.2737
5462.55 -0.583088
5465.42 0.550895
5468.28 -0.982288
5471.15 -2.59696
5474.01 -2.29625
5476.87 -0.474226
5479.74 1.60804
5482.6 -1.07507
5485.47 -0.944963
5488.33 -0.764616
5491.2 1.36206
5494.06 1.32577
5496.92 -0.535259
5499.79 3.19067
5502.65 -2.08536
5505.52 -2.88563
5508.38 -1.79472
5511.25 2.11392
5514.11 1.24339
5516.98 -1.13922
5519.84 -1.03437
5522.71 -0.719794
5525.57 3.2421
5528.43 2.82257
5531.3 0.889518
5534.16 -1.28633
5537.03 -1.67604
5539.89 -1.83942
5542.76 -3.23134
5545.62 -0.907882
5548.49 -0.233144
5551.35 1.31921
5554.21 -1.48848
5557.08 -1.28367
5559.94 2.36357
5562.81 0.210532
5565.67 -0.261383
5568.54 0.226963
5571.4 -0.682177
5574.27 0.947142
5577.13 -2.07038
5579.99 -2.06979
5582.86 0.868776
5585.72 0.661249
5588.59 0.00936632
5591.45 2.74654
5594.32 0.356733
5597.18 -0.768367
5600.05 -1.77159
5602.91 -2.87084
5605.78 -1.14229
5608.64 -1.34743
5611.5 -1.99034
5614.37 0.710054
5617.23 0.444859
5620.1 1.94652
5622.96 1.66288
5625.83 5.79835
5628.69 1.1509
5631.56 -1.31094
5634.42 -0.293754
5637.28 1.19407
5640.15 -0.727971
5643.01 -1.6232
5645.88 1.11554
5648.74 -0.28533
5651.61 -2.1017
5654.47 3.14484
5657.34 -0.83354
5660.2 -0.560918
5663.06 0.791373
5665.93 -1.45651
5668.79 -0.573581
5671.66 -1.91666
5674.52 2.4443
5677.39 1.62934
5680.25 0.846855
5683.12 0.0421628
5685.98 -1.64487
5688.84 2.17803
5691.71 4.45169
5694.57 -2.25611
5697.44 0.391606
5700.3 -0.925126
5703.17 -0.582915
5706.03 -2.25049
5708.9 1.37576
5711.76 -0.996851
5714.62 2.04797
5717.49 3.48308
5720.35 -2.61601
5723.22 -0.0654387
5726.08 -0.26803
5728.95 -0.884893
5731.81 1.1079
5734.68 -2.70683
5737.54 -1.31259
5740.41 -2.3883
5743.27 -1.30898
5746.13 0.756582
5749 -1.65269
5751.86 2.07441
5754.73 1.96074
5757.59 2.38463
5760.46 0.166859
5763.32 -1.89868
5766.19 2.7046
5769.05 -1.19248
5771.91 -0.354981
5774.78 0.756033
5777.64 -0.483075
5780.51 -0.498936
5783.37 -0.0159702
5786.24 1.90273
5789.1 -0.0062206
5791.97 7.86439
5794.83 0.124137
5797.69 -0.578398
5800.56 6.55602
5803.42 -0.891597
5806.29 -2.96335
5809.15 -1.28264
5812.02 -2.01517
5814.88 1.86874
5817.75 -0.0610333
5820.61 0.654331
5823.48 -0.585227
5826.34 2.64565
5829.2 -1.05151
5832.07 -0.324046
5834.93 -0.841761
5837.8 -0.939224
5840.66 5.46055
5843.53 -0.0127033
5846.39 -1.67987
5849.26 -1.70283
5852.12 -0.774724
5854.98 -1.26145
5857.85 0.513685
5860.71 1.87384
5863.58 1.2538
spectrumdark 2048
0 3436.82
2.8709 2313.16
5.74181 863.271
8.61271 794.6
11.4836 690.236
14.3545 946.677
17.2254 719.815
20.0963 795.86
22.9672 1568.36
25.8381 1687.7
28.709 1432.27
31.5799 1311.03
34.4509 1721.86
37.3218 2006.39
40.1927 2246.52
43.0636 1565.06
45.9345 1998.37
48.8054 2217.6
51.6763 2157.96
54.5472 1844.01
57.4181 2341.36
60.289 2476
63.1599 3226.23
66.0308 3429.22
68.9017 2390.89
71.7726 3366.72
74.6435 3318.04
77.5144 3549.29
80.3853 3958.76
83.2562 3800.63
86.1271 2870.9
88.998 2962.01
91.8689 3612.78
94.7398 3206.12
97.6107 2577.93
100.482 2745.98
103.353 3260.8
106.223 3283.45
109.094 3376.08
111.965 3922.49
114.836 3016.44
117.707 2364.82
120.578 3341.52
123.449 4392.32
126.32 2689.79
129.191 2565.19
132.062 2915.86
134.932 3450.54
137.803 3255.98
140.674 4128.23
143.545 3069.15
146.416 2939.54
149.287 2444.72
152.158 2394.72
155.029 3425.52
157.9 3282.35
160.771 3489.37
163.642 3847.98
166.512 3171.24
169.383 2837.4
172.254 2159.83
175.125 3052.28
177.996 3394.85
180.867 3806.78
183.738 3535.77
186.609 3169.85
189.48 2429.46
192.351 3376.59
195.221 2851.22
198.092 3297.69
200.963 3601.51
203.834 3443.7
206.705 3025.97
209.576 3927.09
212.447 4731.1
215.318 3231.93
218.189 3936.49
221.06 3411.03
223.931 2775.26
226.801 2444.67
229.672 3008
232.543 3280.8
235.414 3671.33
238.285 3706.49
241.156 3531.53
244.027 2984.54
246.898 3245.16
249.769 3092.37
252.64 2442.24
255.51 2365.45
258.381 2212.33
261.252 2809.91
264.123 3913.73
266.994 4037.66
269.865 3416.14
272.736 3231.05
275.607 2448.94
278.478 3384.12
281.349 2704.36
284.22 2609.74
287.09 1803.95
289.961 2727.2
292.832 2842.84
295.703 3434.87
298.574 2735.1
301.445 2650.73
304.316 2707.91
307.187 2048.06
310.058 2287.04
312.929 2651.33
315.799 2381.78
318.67 2117.55
321.541 2906.88
324.412 2617.7
327.283 2667.4
330.154 2043.78
333.025 3075.44
335.896 3089.02
338.767 2006.73
341.638 3579.83
344.509 2892.31
347.379 2320.68
350.25 1896.03
353.121 2573.13
355.992 2733.39
358.863 1940.83
361.734 3670.48
364.605 2741.79
367.476 2519.53
370.347 2603.05
373.218 3057.6
376.088 1714.62
378.959 2483.42
381.83 2182.45
384.701 2117.5
387.572 2148.08
390.443 3297.62
393.314 3139.66
396.185 2602.18
399.056 2178.95
401.927 1997.75
404.798 1529.42
407.668 1599.72
410.539 1654.63
413.41 2041.6
416.281 2134.99
419.152 1809.03
422.023 1828.32
424.894 2055.48
427.765 1785.1
430.636 2499.07
433.507 2008.14
436.378 1794.59
439.248 1806.69
442.119 2115.28
444.99 1782.68
447.861 1152.51
450.732 1751.16
453.603 2321.23
456.474 2795.26
459.345 2907
462.216 2514.88
465.087 2010.05
467.957 1601.5
470.828 2029.06
473.699 2445.32
476.57 2185.19
479.441 2076.3
482.312 2455.5
485.183 2150.09
488.054 2442.81
490.925 1727.83
493.796 2611.38
496.666 2239.89
499.537 2258.4
502.408 1751.22
505.279 2089.45
508.15 1746.17
511.021 2766.64
513.892 2871.27
516.763 2294.48
519.634 1706.17
522.505 2367.17
525.376 1426.73
528.246 1839.61
531.117 2222.57
533.988 2419.29
536.859 2425.41
539.73 1342.64
542.601 2326.95
545.472 3234.68
548.343 1960.68
551.214 1508.79
554.085 2101.09
556.955 2547.23
559.826 2034.55
562.697 2129.32
565.568 1661.02
568.439 1521.3
571.31 1651.13
574.181 2020.32
577.052 2916.74
579.923 2279.11
582.794 2144.4
585.664 1725.61
588.535 2766.15
591.406 3321.16
594.277 3928.61
597.148 4081.7
600.019 4472.14
602.89 4654.06
605.761 5681.8
608.632 5863.55
611.503 5810.6
614.374 6838.67
617.244 8652.93
620.115 9872.74
622.986 10930.8
625.857 13933.3
628.728 15269.7
631.599 16458.6
634.47 18339.1
637.341 20359.5
640.212 21950.4
643.083 25348.3
645.953 27256.2
648.824 29423.4
651.695 31526.3
654.566 33117.9
657.437 35629
660.308 38239.1
663.179 40716.2
666.05 42815.4
668.921 40883.1
671.792 47437.3
674.663 50354.3
677.533 53413.3
680.404 54546.8
683.275 57185.9
686.146 59353.7
689.017 61313.9
691.888 64042.9
694.759 66945.8
697.63 69664
700.501 72660.6
703.372 75583.9
706.242 77326.3
709.113 79590.7
711.984 83289.2
714.855 86371.7
717.726 88905
720.597 91331.5
723.468 94370.6
726.339 96910.8
729.21 100854
732.081 104291
734.952 107607
737.822 111039
740.693 115162
743.564 118234
746.435 121474
749.306 125692
752.177 129240
755.048 133140
757.919 137586
760.79 141010
763.661 146279
766.531 149256
769.402 154409
772.273 158770
775.144 162379
778.015 167162
780.886 170793
783.757 174073
786.628 177768
789.499 181332
792.37 185384
795.24 188630
798.111 191941
800.982 197678
803.853 201680
806.724 206310
809.595 211831
812.466 216842
815.337 221654
818.208 226438
821.079 231515
823.95 237054
826.82 240480
829.691 246470
832.562 250941
835.433 255391
838.304 260018
841.175 263193
844.046 267782
846.917 271719
849.788 275269
852.659 280373
855.53 284120
858.4 288058
861.271 292096
864.142 295493
867.013 299522
869.884 304051
872.755 308375
875.626 312203
878.497 316567
881.368 321924
884.239 325949
887.109 329886
889.98 335649
892.851 340190
895.722 344919
898.593 350630
901.464 355330
904.335 360431
907.206 365258
910.077 370910
912.948 376495
915.819 381655
918.689 387416
921.56 392437
924.431 398349
927.302 405130
930.173 411162
933.044 418223
935.915 424879
938.786 431195
941.657 438295
944.528 445886
947.398 453651
950.269 461838
953.14 470575
956.011 479993
958.882 489971
961.753 499983
964.624 511360
967.495 522609
970.366 534370
973.237 546936
976.107 559032
978.978 572153
981.849 583507
984.72 595485
987.591 606323
990.462 616563
993.333 624968
996.204 632525
999.075 636667
1001.95 639680
1004.82 639866
1007.69 637394
1010.56 632278
1013.43 625707
1016.3 617750
1019.17 609205
1022.04 600301
1024.91 590988
1027.78 580557
1030.65 570083
1033.53 558936
1036.4 547043
1039.27 535279
1042.14 522668
1045.01 510070
1047.88 497596
1050.75 485286
1053.62 472936
1056.49 459959
1059.36 447468
1062.23 434617
1065.11 422077
1067.98 409533
1070.85 398128
1073.72 386158
1076.59 374486
1079.46 363920
1082.33 354432
1085.2 346011
1088.07 338307
1090.94 331990
1093.81 325690
1096.69 321525
1099.56 318007
1102.43 315278
1105.3 312950
1108.17 311349
1111.04 309782
1113.91 309092
1116.78 308431
1119.65 308054
1122.52 307751
1125.39 307132
1128.27 307720
1131.14 307790
1134.01 307943
1136.88 306608
1139.75 307039
1142.62 307141
1145.49 306593
1148.36 305753
1151.23 304977
1154.1 303189
1156.97 301089
1159.85 299995
1162.72 298147
1165.59 296519
1168.46 294712
1171.33 291899
1174.2 289610
1177.07 286549
1179.94 283234
1182.81 280510
1185.68 277492
1188.55 274503
1191.43 271221
1194.3 268643
1197.17 265812
1200.04 262634
1202.91 260638
1205.78 258519
1208.65 256535
1211.52 255209
1214.39 253783
1217.26 253634
1220.13 254234
1223.01 255620
1225.88 257621
1228.75 260119
1231.62 263813
1234.49 267892
1237.36 272473
1240.23 278524
1243.1 284150
1245.97 290863
1248.84 296321
1251.71 301037
1254.59 304814
1257.46 306818
1260.33 306360
1263.2 306672
1266.07 308244
1268.94 309203
1271.81 309731
1274.68 310650
1277.55 310834
1280.42 310324
1283.29 310130
1286.17 309679
1289.04 308721
1291.91 308499
1294.78 307640
1297.65 306819
1300.52 306004
1303.39 305693
1306.26 304706
1309.13 303851
1312 302378
1314.87 300825
1317.75 300008
1320.62 298478
1323.49 299042
1326.36 298935
1329.23 298719
1332.1 297399
1334.97 296315
1337.84 293998
1340.71 289510
1343.58 291003
1346.45 294885
1349.33 293502
1352.2 292907
1355.07 291912
1357.94 290098
1360.81 288762
1363.68 282163
1366.55 282823
1369.42 287134
1372.29 285429
1375.16 281184
1378.03 280192
1380.91 284524
1383.78 284993
1386.65 282834
1389.52 273594
1392.39 279058
1395.26 274810
1398.13 266753
1401 270393
1403.87 276341
1406.74 274878
1409.61 277234
1412.48 277927
1415.36 276105
1418.23 269867
1421.1 250933
1423.97 263911
1426.84 269369
1429.71 272565
1432.58 267078
1435.45 267655
1438.32 251280
1441.19 260414
1444.06 272136
1446.94 270901
1449.81 262833
1452.68 264356
1455.55 259192
1458.42 231482
1461.29 236139
1464.16 263238
1467.03 254550
1469.9 260923
1472.77 255157
1475.64 235918
1478.52 253778
1481.39 265818
1484.26 267122
1487.13 265907
1490 253500
1492.87 246528
1495.74 257908
1498.61 243741
1501.48 247234
1504.35 253610
1507.22 231385
1510.1 207542
1512.97 242718
1515.84 247023
1518.71 237939
1521.58 230667
1524.45 216775
1527.32 236943
1530.19 241985
1533.06 249189
1535.93 235274
1538.8 237245
1541.68 204055
1544.55 207003
1547.42 231498
1550.29 246631
1553.16 242807
1556.03 233378
1558.9 214819
1561.77 184572
1564.64 230625
1567.51 242612
1570.38 241060
1573.26 231442
1576.13 241255
1579 219110
1581.87 242915
1584.74 246864
1587.61 246730
1590.48 245070
1593.35 242305
1596.22 240524
1599.09 238013
1601.96 235719
1604.84 231003
1607.71 226587
1610.58 220886
1613.45 215962
1616.32 209711
1619.19 188679
1622.06 198609
1624.93 197356
1627.8 196296
1630.67 200775
1633.54 203233
1636.42 195932
1639.29 184688
1642.16 210457
1645.03 212472
1647.9 201154
1650.77 193065
1653.64 196794
1656.51 171956
1659.38 221334
1662.25 229136
1665.12 222969
1668 227755
1670.87 222187
1673.74 215258
1676.61 222685
1679.48 220527
1682.35 228361
1685.22 214185
1688.09 198180
1690.96 230984
1693.83 230355
1696.7 223678
1699.58 197653
1702.45 196387
1705.32 210287
1708.19 222653
1711.06 230384
1713.93 231921
1716.8 220357
1719.67 204332
1722.54 216117
1725.41 233582
1728.28 233027
1731.16 229281
1734.03 218087
1736.9 197421
1739.77 217264
1742.64 218622
1745.51 224065
1748.38 224656
1751.25 219397
1754.12 215217
1756.99 227477
1759.86 224772
1762.74 227156
1765.61 221516
1768.48 228110
1771.35 217280
1774.22 211062
1777.09 212607
1779.96 224223
1782.83 222219
1785.7 221588
1788.57 220020
1791.44 220250
1794.32 210567
1797.19 210816
1800.06 217334
1802.93 213335
1805.8 213898
1808.67 215596
1811.54 212625
1814.41 208856
1817.28 208152
1820.15 202650
1823.02 196588
1825.9 192566
1828.77 186388
1831.64 185562
1834.51 183430
1837.38 187170
1840.25 184476
1843.12 180504
1845.99 174030
1848.86 171464
1851.73 176478
1854.6 175961
1857.48 174158
1860.35 172032
1863.22 170288
1866.09 168293
1868.96 164239
1871.83 159747
1874.7 161697
1877.57 162692
1880.44 161128
1883.31 159155
1886.18 157683
1889.06 154734
1891.93 152413
1894.8 150738
1897.67 150123
1900.54 148517
1903.41 147341
1906.28 145436
1909.15 143246
1912.02 141065
1914.89 139709
1917.76 137193
1920.64 134238
1923.51 133173
1926.38 131967
1929.25 130445
1932.12 127962
1934.99 125650
1937.86 122877
1940.73 119693
1943.6 116901
1946.47 114264
1949.34 112977
1952.21 111109
1955.09 108874
1957.96 106823
1960.83 103947
1963.7 100990
1966.57 98102.3
1969.44 96376.3
1972.31 95002.6
1975.18 93213.9
1978.05 91416.5
1980.92 90615.2
1983.79 92280
1986.67 95094.8
1989.54 96538.2
1992.41 97441
1995.28 97788.6
1998.15 98856.8
2001.02 99167.5
2003.89 98378
2006.76 97016.3
2009.63 94103.3
2012.5 92647.8
2015.37 92272.8
2018.25 91652.5
2021.12 91609.1
2023.99 91035.9
2026.86 91050.9
2029.73 90706.9
2032.6 90278.4
2035.47 89956
2038.34 90431.4
2041.21 91997.4
2044.08 94139
2046.95 95779.4
2049.83 97824.5
2052.7 100194
2055.57 105160
2058.44 108626
2061.31 110619
2064.18 112124
2067.05 113802
2069.92 115030
2072.79 116549
2075.66 118067
2078.53 119995
2081.41 121970
2084.28 123866
2087.15 125831
2090.02 127592
2092.89 128485
2095.76 128353
2098.63 127256
2101.5 126643
2104.37 127306
2107.24 128013
2110.11 128405
2112.99 128906
2115.86 129607
2118.73 130534
2121.6 130512
2124.47 129513
2127.34 127926
2130.21 125552
2133.08 122019
2135.95 117331
2138.82 111607
2141.69 107445
2144.57 104321
2147.44 100714
2150.31 97784.5
2153.18 94902.6
2156.05 92155.1
2158.92 88773.8
2161.79 83854
2164.66 82109.6
2167.53 84243.1
2170.4 86610
2173.27 88856.2
2176.15 90100.5
2179.02 90560.9
2181.89 90939.8
2184.76 90988
2187.63 91983.6
2190.5 92893
2193.37 94306.2
2196.24 95385.5
2199.11 96525.4
2201.98 97676.3
2204.85 98638.5
2207.73 99830.7
2210.6 100425
2213.47 101385
2216.34 102038
2219.21 103052
2222.08 103931
2224.95 104874
2227.82 105769
2230.69 107252
2233.56 108112
2236.43 109376
2239.31 110635
2242.18 112063
2245.05 113784
2247.92 115100
2250.79 117003
2253.66 118052
2256.53 119026
2259.4 120039
2262.27 121905
2265.14 124036
2268.01 125852
2270.89 127758
2273.76 130465
2276.63 132745
2279.5 136020
2282.37 139676
2285.24 143752
2288.11 148368
2290.98 153871
2293.85 159594
2296.72 164428
2299.59 168902
2302.47 172692
2305.34 175872
2308.21 178746
2311.08 181184
2313.95 183241
2316.82 184986
2319.69 186844
2322.56 189144
2325.43 192267
2328.3 199037
2331.17 204515
2334.05 202676
2336.92 200146
2339.79 198663
2342.66 198129
2345.53 200085
2348.4 204407
2351.27 210912
2354.14 212680
2357.01 200161
2359.88 187317
2362.75 179132
2365.63 175374
2368.5 174238
2371.37 175915
2374.24 180054
2377.11 185502
2379.98 190320
2382.85 193593
2385.72 194618
2388.59 193264
2391.46 191092
2394.33 188303
2397.21 185859
2400.08 183081
2402.95 179913
2405.82 177280
2408.69 174614
2411.56 171971
2414.43 170096
2417.3 168637
2420.17 167070
2423.04 165414
2425.91 163894
2428.79 162393
2431.66 160838
2434.53 159698
2437.4 158766
2440.27 157698
2443.14 156596
2446.01 156116
2448.88 155444
2451.75 155198
2454.62 154869
2457.49 154611
2460.36 154469
2463.24 154342
2466.11 153868
2468.98 153146
2471.85 152871
2474.72 152255
2477.59 151632
2480.46 150619
2483.33 149858
2486.2 148618
2489.07 148107
2491.95 147393
2494.82 147030
2497.69 146449
2500.56 146227
2503.43 145432
2506.3 145011
2509.17 144343
2512.04 143754
2514.91 143408
2517.78 143015
2520.65 142515
2523.53 141971
2526.4 141700
2529.27 141314
2532.14 140949
2535.01 140526
2537.88 140468
2540.75 140425
2543.62 140243
2546.49 140194
2549.36 139930
2552.23 139918
2555.1 139796
2557.98 139906
2560.85 140027
2563.72 140529
2566.59 140683
2569.46 141051
2572.33 141474
2575.2 141886
2578.07 142621
2580.94 143099
2583.81 143700
2586.68 144395
2589.56 145378
2592.43 146209
2595.3 147522
2598.17 148513
2601.04 149937
2603.91 150877
2606.78 152752
2609.65 154307
2612.52 155987
2615.39 158188
2618.26 160216
2621.14 162354
2624.01 164485
2626.88 167109
2629.75 169707
2632.62 172615
2635.49 175453
2638.36 178407
2641.23 181614
2644.1 185156
2646.97 188303
2649.84 192087
2652.72 195395
2655.59 199085
2658.46 202414
2661.33 205556
2664.2 208076
2667.07 210250
2669.94 211139
2672.81 210958
2675.68 210692
2678.55 210274
2681.42 209366
2684.3 208638
2687.17 207838
2690.04 207131
2692.91 206308
2695.78 205831
2698.65 205221
2701.52 204326
2704.39 203528
2707.26 202835
2710.13 202104
2713 201437
2715.88 200996
2718.75 199942
2721.62 199334
2724.49 198372
2727.36 197987
2730.23 197308
2733.1 196841
2735.97 195880
2738.84 195322
2741.71 194538
2744.58 193805
2747.46 193364
2750.33 192668
2753.2 191941
2756.07 191337
2758.94 190590
2761.81 189978
2764.68 189544
2767.55 188921
2770.42 188219
2773.29 187513
2776.16 187031
2779.04 186341
2781.91 185767
2784.78 184963
2787.65 184526
2790.52 183899
2793.39 183049
2796.26 182403
2799.13 181938
2802 181545
2804.87 180786
2807.74 180074
2810.62 179706
2813.49 178907
2816.36 178334
2819.23 177955
2822.1 177279
2824.97 176538
2827.84 175799
2830.71 175115
2833.58 174453
2836.45 173897
2839.32 173376
2842.2 172549
2845.07 171859
2847.94 170995
2850.81 169951
2853.68 169235
2856.55 168151
2859.42 167409
2862.29 166726
2865.16 166478
2868.03 166073
2870.9 165379
2873.78 165003
2876.65 164222
2879.52 163817
2882.39 163330
2885.26 162750
2888.13 162103
2891 161656
2893.87 161091
2896.74 160397
2899.61 159521
2902.48 159068
2905.36 158331
2908.23 157520
2911.1 156644
2913.97 155869
2916.84 154994
2919.71 154066
2922.58 153560
2925.45 152321
2928.32 151412
2931.19 150759
2934.06 150411
2936.94 150036
2939.81 149730
2942.68 149283
2945.55 148846
2948.42 148495
2951.29 148178
2954.16 147722
2957.03 146987
2959.9 146529
2962.77 145796
2965.64 145325
2968.52 144891
2971.39 144582
2974.26 144134
2977.13 143917
2980 143920
2982.87 143718
2985.74 143596
2988.61 143305
2991.48 143032
2994.35 142342
2997.22 141869
3000.1 141392
3002.97 141018
3005.84 140604
3008.71 140104
3011.58 139663
3014.45 138904
3017.32 138293
3020.19 137822
3023.06 137325
3025.93 136883
3028.8 136391
3031.68 135859
3034.55 135284
3037.42 134545
3040.29 134165
3043.16 133729
3046.03 133174
3048.9 132736
3051.77 132226
3054.64 131614
3057.51 131054
3060.38 130765
3063.26 130033
3066.13 129568
3069 128941
3071.87 128498
3074.74 128228
3077.61 127793
3080.48 126870
3083.35 126362
3086.22 126088
3089.09 125579
3091.96 125340
3094.83 124722
3097.71 124106
3100.58 123379
3103.45 122778
3106.32 122355
3109.19 122065
3112.06 121381
3114.93 120771
3117.8 120466
3120.67 119593
3123.54 119053
3126.41 118920
3129.29 118316
3132.16 117860
3135.03 117557
3137.9 116956
3140.77 116067
3143.64 115733
3146.51 115184
3149.38 114807
3152.25 114340
3155.12 113818
3157.99 113151
3160.87 112663
3163.74 112406
3166.61 111789
3169.48 111086
3172.35 110532
3175.22 110066
3178.09 109542
3180.96 109093
3183.83 108366
3186.7 107972
3189.57 107330
3192.45 106930
3195.32 106504
3198.19 105887
3201.06 105647
3203.93 105064
3206.8 104583
3209.67 104061
3212.54 103708
3215.41 103171
3218.28 102723
3221.15 102317
3224.03 102124
3226.9 101638
3229.77 101432
3232.64 100970
3235.51 100627
3238.38 100104
3241.25 100140
3244.12 99859
3246.99 99548.1
3249.86 99213.5
3252.73 98817.3
3255.61 98739.8
3258.48 98453.6
3261.35 98194.4
3264.22 98058.4
3267.09 97742.3
3269.96 97473.9
3272.83 97069.5
3275.7 96785.9
3278.57 96466.7
3281.44 96325.1
3284.31 96012.4
3287.19 95678
3290.06 95302.1
3292.93 94869.9
3295.8 94442.3
3298.67 94384.6
3301.54 94075.8
3304.41 93506.8
3307.28 93228.7
3310.15 92870
3313.02 92421.5
3315.89 92124.4
3318.77 91842.3
3321.64 91139.3
3324.51 90799.6
3327.38 90315.1
3330.25 89825.2
3333.12 89423.1
3335.99 89054.8
3338.86 88438.8
3341.73 87859.4
3344.6 87396.5
3347.47 87104.2
3350.35 86731.2
3353.22 86366.9
3356.09 85596.2
3358.96 85176
3361.83 84665.5
3364.7 84019.4
3367.57 83307
3370.44 82660.9
3373.31 82400.5
3376.18 82060.8
3379.05 81842.7
3381.93 81226.9
3384.8 80593.7
3387.67 80066.8
3390.54 79319.4
3393.41 78879.2
3396.28 78448.5
3399.15 77769.4
3402.02 77349.8
3404.89 76566.1
3407.76 76255.4
3410.63 75952.9
3413.51 75403.1
3416.38 74952.5
3419.25 74423.3
3422.12 73821.9
3424.99 73205.7
3427.86 72662.3
3430.73 72373.1
3433.6 71829.7
3436.47 71281.7
3439.34 70723.6
3442.21 70317
3445.09 69999.1
3447.96 69496.5
3450.83 69159.1
3453.7 68169.2
3456.57 68173
3459.44 67645
3462.31 67377.7
3465.18 66644
3468.05 66234.9
3470.92 65851
3473.79 65638.1
3476.67 65314.9
3479.54 64859.4
3482.41 64279.5
3485.28 63996.8
3488.15 63353.5
3491.02 63099.9
3493.89 62779.8
3496.76 62504.9
3499.63 62339
3502.5 61699.7
3505.37 61537.9
3508.25 60875.2
3511.12 60176.2
3513.99 60530.3
3516.86 60147.3
3519.73 60171.1
3522.6 59964.7
3525.47 59853.2
3528.34 59317.2
3531.21 58608.7
3534.08 58527.7
3536.95 58523.2
3539.83 58950.8
3542.7 58744.6
3545.57 58722
3548.44 58500.6
3551.31 57456.1
3554.18 57391.9
3557.05 58179.8
3559.92 57842.8
3562.79 58272.9
3565.66 58012
3568.53 57642
3571.41 56815.7
3574.28 55134.4
3577.15 57599.1
3580.02 58782.9
3582.89 58641
3585.76 58379.2
3588.63 58608.4
3591.5 57853.7
3594.37 55754.4
3597.24 58047.1
3600.11 58706
3602.98 58692.5
3605.86 59282
3608.73 59788.9
3611.6 60240.9
3614.47 58304
3617.34 58179.7
3620.21 58681.2
3623.08 59892.6
3625.95 58108.1
3628.82 60567
3631.69 62171.7
3634.56 57805.7
3637.44 58058.1
3640.31 62530.8
3643.18 63734.5
3646.05 64018.3
3648.92 63506
3651.79 62829.4
3654.66 57778.4
3657.53 56887.1
3660.4 62378.1
3663.27 61345.5
3666.15 63982.5
3669.02 64422.3
3671.89 64257.3
3674.76 61271.8
3677.63 56998.7
3680.5 58504.6
3683.37 55805.5
3686.24 61315.1
3689.11 62716.8
3691.98 62788.8
3694.85 58029
3697.72 58425.9
3700.6 62189.9
3703.47 63537.4
3706.34 62956.2
3709.21 61182.2
3712.08 62573.7
3714.95 61547.2
3717.82 57984
3720.69 59081.1
3723.56 62404.4
3726.43 61774.9
3729.3 60725.8
3732.18 59844.5
3735.05 60108.9
3737.92 58717.5
3740.79 55524.8
3743.66 54287.8
3746.53 58094.1
3749.4 56203.8
3752.27 50704.5
3755.14 54586.6
3758.01 51776.6
3760.88 56643.6
3763.76 60163.5
3766.63 59628.5
3769.5 61388.3
3772.37 60687.8
3775.24 60480.7
3778.11 59913.9
3780.98 62239.5
3783.85 62024.8
3786.72 60530.1
3789.59 61761.3
3792.46 61473.2
3795.34 61988.8
3798.21 61876.6
3801.08 60910.2
3803.95 58883.2
3806.82 56936.5
3809.69 55024.2
3812.56 57497.9
3815.43 56942.8
3818.3 60022.2
3821.17 57700
3824.04 54344.9
3826.92 55271.2
3829.79 54798.6
3832.66 58057
3835.53 58093.3
3838.4 56771.4
3841.27 55603
3844.14 52740.6
3847.01 53224.9
3849.88 55592.3
3852.75 56626.7
3855.62 56940.4
3858.5 52088.3
3861.37 45816.9
3864.24 53743.3
3867.11 56023.2
3869.98 54308.3
3872.85 53451.7
3875.72 52899.1
3878.59 51939
3881.46 53999.8
3884.33 55303.6
3887.2 53449.1
3890.08 53737.2
3892.95 51891.3
3895.82 53874.8
3898.69 52308.7
3901.56 53976.9
3904.43 53411.1
3907.3 50772.1
3910.17 50110.5
3913.04 51474.2
3915.91 53864
3918.78 53930.2
3921.66 53542.1
3924.53 52089.2
3927.4 52262.9
3930.27 52289.1
3933.14 51922.3
3936.01 52284.5
3938.88 51387.2
3941.75 51693.5
3944.62 52109.8
3947.49 51674.6
3950.36 50839.7
3953.24 50937.3
3956.11 50549.1
3958.98 50598.4
3961.85 50708.5
3964.72 50455.1
3967.59 50273.5
3970.46 49895.9
3973.33 49736.5
3976.2 49743.8
3979.07 49436.6
3981.94 48993.6
3984.82 48727.1
3987.69 48777.4
3990.56 48600.6
3993.43 48377
3996.3 48015.7
3999.17 47892.7
4002.04 47524.3
4004.91 47385.2
4007.78 47300.1
4010.65 46981.1
4013.52 46891.2
4016.4 46358.7
4019.27 46227.2
4022.14 46120.5
4025.01 45964.8
4027.88 45645.9
4030.75 45447.8
4033.62 45184.2
4036.49 45170.9
4039.36 45036.2
4042.23 44636.8
4045.1 44486.8
4047.98 44354.8
4050.85 43980.6
4053.72 43888.7
4056.59 43814.9
4059.46 43757.7
4062.33 43373.6
4065.2 43382.3
4068.07 43142
4070.94 42944.3
4073.81 42826.4
4076.68 42587.4
4079.56 42356.4
4082.43 42255.9
4085.3 42178.9
4088.17 41954.3
4091.04 41744.8
4093.91 41568.9
4096.78 41598.8
4099.65 41521.9
4102.52 41392.4
4105.39 41137.4
4108.26 40926.8
4111.14 40836.1
4114.01 40636.9
4116.88 40447.2
4119.75 40509
4122.62 40298.6
4125.49 40244.1
4128.36 40101.7
4131.23 39928.3
4134.1 39793
4136.97 39679.3
4139.84 39577.3
4142.72 39484.4
4145.59 39410.8
4148.46 39365.7
4151.33 39136.2
4154.2 38984
4157.07 38766
4159.94 38761.6
4162.81 38692.7
4165.68 38513.1
4168.55 38427.6
4171.42 38482.6
4174.3 38527.9
4177.17 38312.5
4180.04 38132.9
4182.91 38176
4185.78 37921.7
4188.65 37880.9
4191.52 37950
4194.39 37759
4197.26 37625.4
4200.13 37514.2
4203 37523.5
4205.87 37453.1
4208.75 37393.4
4211.62 37298.9
4214.49 37263.1
4217.36 37237.6
4220.23 37278.1
4223.1 37306.8
4225.97 37365.6
4228.84 37034.4
4231.71 37004.5
4234.58 36971.9
4237.45 36877.6
4240.33 36926.6
4243.2 36831.2
4246.07 36837.3
4248.94 36768.6
4251.81 36768.8
4254.68 36608.9
4257.55 36608.6
4260.42 36638.9
4263.29 36532.7
4266.16 36626.5
4269.03 36394.5
4271.91 36253.1
4274.78 36414.1
4277.65 36395
4280.52 36378.3
4283.39 36361.2
4286.26 36427.3
4289.13 36341.2
4292 36316.1
4294.87 36177.6
4297.74 36139.3
4300.61 36118.3
4303.49 36052.5
4306.36 36102.2
4309.23 36090.5
4312.1 35925
4314.97 35775.1
4317.84 35923.9
4320.71 35904.8
4323.58 35925.7
4326.45 35951.7
4329.32 35852.4
4332.19 35806.7
4335.07 35859.9
4337.94 35864.8
4340.81 35819.1
4343.68 35673
4346.55 35587.7
4349.42 35505.7
4352.29 35672.2
4355.16 35443.9
4358.03 35509.2
4360.9 35507.2
4363.77 35513.1
4366.65 35420.8
4369.52 35429.2
4372.39 35381.5
4375.26 35268.3
4378.13 35299.9
4381 35189.9
4383.87 35157.6
4386.74 35025.6
4389.61 35051.2
4392.48 34989.5
4395.35 34810.1
4398.23 34904.1
4401.1 34959.1
4403.97 34720.5
4406.84 34732.5
4409.71 34596.7
4412.58 34645.8
4415.45 34747.3
4418.32 34521.2
4421.19 34276.5
4424.06 34354.4
4426.93 34191.5
4429.81 34165.3
4432.68 34157.4
4435.55 34028.7
4438.42 33841.1
4441.29 33767.5
4444.16 33671.9
4447.03 33650.2
4449.9 33510.1
4452.77 33422.7
4455.64 33454.4
4458.51 33280.2
4461.39 33163.8
4464.26 32925.2
4467.13 32761.5
4470 32765.7
4472.87 32892.5
4475.74 32698.9
4478.61 32335.3
4481.48 32234.4
4484.35 32159.6
4487.22 31985.3
4490.09 31843.3
4492.97 31747.5
4495.84 31536.8
4498.71 31362.9
4501.58 31347.7
4504.45 31181.7
4507.32 30909.3
4510.19 30688.4
4513.06 30596.5
4515.93 30551.3
4518.8 30307.8
4521.67 30148
4524.55 29982.9
4527.42 29722.1
4530.29 29637.7
4533.16 29495.1
4536.03 29370.7
4538.9 29175.4
4541.77 28821.6
4544.64 28671.3
4547.51 28419.6
4550.38 28198
4553.25 28047.1
4556.13 27828.8
4559 27703.7
4561.87 27487.7
4564.74 27187.1
4567.61 26962.6
4570.48 26799.3
4573.35 26643
4576.22 26312.1
4579.09 26098.5
4581.96 26040.5
4584.83 25736
4587.71 25371.5
4590.58 25149.5
4593.45 25129.1
4596.32 24764.8
4599.19 24513.2
4602.06 24256.2
4604.93 23889
4607.8 23775.6
4610.67 23595.3
4613.54 23294.4
4616.41 23065.3
4619.29 22765.1
4622.16 22421.8
4625.03 22204.2
4627.9 21929.7
4630.77 21500.1
4633.64 21481.6
4636.51 21299.3
4639.38 20937.7
4642.25 20736.8
4645.12 20408.3
4647.99 20174.8
4650.87 19918.2
4653.74 19626.1
4656.61 19231.6
4659.48 19189.2
4662.35 18821
4665.22 18572.7
4668.09 18219.6
4670.96 17975
4673.83 17851.7
4676.7 17455.9
4679.57 17173.3
4682.45 16962.8
4685.32 16731.5
4688.19 16555.4
4691.06 16299.7
4693.93 16116.2
4696.8 15781.7
4699.67 15507.3
4702.54 15343.1
4705.41 14864.6
4708.28 14664.8
4711.15 14464.3
4714.03 14138.5
4716.9 13916.4
4719.77 13674
4722.64 13449.1
4725.51 13217.4
4728.38 13000.8
4731.25 12685.6
4734.12 12523.2
4736.99 12357.2
4739.86 12205.8
4742.73 11847.1
4745.6 11535.9
4748.48 11349.7
4751.35 11174.1
4754.22 10934
4757.09 10523.8
4759.96 10487.6
4762.83 10229.5
4765.7 10013.1
4768.57 9747.11
4771.44 9490.11
4774.31 9479.38
4777.18 9242.83
4780.06 9019.17
4782.93 8826.02
4785.8 8545.35
4788.67 8395.12
4791.54 8187.27
4794.41 7972.46
4797.28 7787.16
4800.15 7545.79
4803.02 7427.74
4805.89 7226.41
4808.76 7133.13
4811.64 6883.27
4814.51 6611.58
4817.38 6586.83
4820.25 6315.62
4823.12 6263.87
4825.99 6104.22
4828.86 5982.4
4831.73 5776.06
4834.6 5550.41
4837.47 5329.03
4840.34 5174.5
4843.22 5032.01
4846.09 4942.74
4848.96 4861.99
4851.83 4836.68
4854.7 4543.21
4857.57 4514.51
4860.44 4404.07
4863.31 4142.64
4866.18 4030.24
4869.05 3882.39
4871.92 3811.96
4874.8 3743.47
4877.67 3665.44
4880.54 3445.77
4883.41 3387.03
4886.28 3295.24
4889.15 3241.46
4892.02 3131.01
4894.89 3156.9
4897.76 2962.13
4900.63 2933.06
4903.5 2765.19
4906.38 2776.48
4909.25 2626.07
4912.12 2630.58
4914.99 2361.6
4917.86 2405.24
4920.73 2342.17
4923.6 2110.89
4926.47 2103.69
4929.34 2153.84
4932.21 2055.82
4935.08 1942.05
4937.96 1805.83
4940.83 1751.86
4943.7 1841.26
4946.57 1801.36
4949.44 1791.98
4952.31 1679.85
4955.18 1598.24
4958.05 1652.99
4960.92 1372.64
4963.79 1253.25
4966.67 1213.85
4969.54 1309.21
4972.41 1361.23
4975.28 1283.44
4978.15 1207.85
4981.02 1126.32
4983.89 1053.11
4986.76 1063.7
4989.63 1129.54
4992.5 986.991
4995.37 1008.61
4998.24 850.068
5001.12 983.934
5003.99 903.489
5006.86 833.338
5009.73 743.363
5012.6 764.341
5015.47 779.68
5018.34 684.535
5021.21 584.911
5024.08 581.138
5026.95 616.05
5029.82 634.476
5032.7 622.695
5035.57 578.172
5038.44 667.534
5041.31 475.351
5044.18 493.55
5047.05 545.657
5049.92 389.76
5052.79 286.112
5055.66 393.577
5058.53 359.969
5061.4 456.384
5064.28 434.794
5067.15 427
5070.02 400.864
5072.89 349.364
5075.76 301.776
5078.63 459.83
5081.5 410.641
5084.37 237.999
5087.24 338.805
5090.11 333.841
5092.98 270.03
5095.86 218.155
5098.73 298.336
5101.6 298.812
5104.47 244.321
5107.34 256.187
5110.21 276.55
5113.08 201.278
5115.95 284.216
5118.82 414.495
5121.69 278.598
5124.56 313.973
5127.44 352.636
5130.31 280.794
5133.18 294.852
5136.05 230.707
5138.92 256.307
5141.79 266.508
5144.66 324.077
5147.53 405.945
5150.4 350.914
5153.27 261.809
5156.14 384.883
5159.02 345.464
5161.89 416.903
5164.76 365.433
5167.63 226.62
5170.5 241.199
5173.37 291.702
5176.24 304.341
5179.11 438.037
5181.98 388.285
5184.85 290.117
5187.72 325.849
5190.6 461.783
5193.47 379.631
5196.34 326.99
5199.21 438.189
5202.08 339.529
5204.95 356.179
5207.82 373.299
5210.69 438.731
5213.56 393.634
5216.43 475.857
5219.3 493.836
5222.18 465.023
5225.05 404.459
5227.92 528.202
5230.79 469.744
5233.66 416.407
5236.53 430.946
5239.4 389.458
5242.27 478.549
5245.14 399.483
5248.01 559.659
5250.88 522.655
5253.75 458.315
5256.63 430.336
5259.5 442.061
5262.37 372.376
5265.24 439.8
5268.11 603.388
5270.98 570.262
5273.85 526.848
5276.72 469.383
5279.59 459.891
5282.46 476.4
5285.33 476.216
5288.21 483.836
5291.08 545.522
5293.95 490.326
5296.82 562.454
5299.69 540.775
5302.56 472.405
5305.43 545.444
5308.3 557.303
5311.17 504.082
5314.04 532.818
5316.92 547.776
5319.79 597.866
5322.66 529.592
5325.53 628.016
5328.4 659.366
5331.27 621.662
5334.14 677.863
5337.01 665.64
5339.88 685.942
5342.75 575.699
5345.62 567.409
5348.5 628.449
5351.37 633.74
5354.24 585.292
5357.11 655.317
5359.98 710.929
5362.85 653.485
5365.72 648.831
5368.59 684.052
5371.46 696.792
5374.33 779.531
5377.2 699.419
5380.07 629.492
5382.95 527.934
5385.82 473.754
5388.69 580.607
5391.56 627.927
5394.43 757.924
5397.3 655.221
5400.17 625.442
5403.04 538.686
5405.91 543.447
5408.78 595.221
5411.65 656.975
5414.53 554.908
5417.4 563.742
5420.27 688.016
5423.14 665.236
5426.01 565.128
5428.88 581.598
5431.75 596.217
5434.62 633.484
5437.49 663.969
5440.36 571.158
5443.23 532.275
5446.11 528.353
5448.98 571.798
5451.85 590.856
5454.72 554.396
5457.59 460.8
5460.46 421.967
5463.33 608.921
5466.2 610.096
5469.07 581.014
5471.94 568.686
5474.81 551.691
5477.69 501.993
5480.56 437.771
5483.43 427.273
5486.3 527.952
5489.17 496.556
5492.04 494.069
5494.91 522.143
5497.78 622.002
5500.65 554.096
5503.52 616.072
5506.4 719.293
5509.27 532.855
5512.14 660.577
5515.01 528.986
5517.88 381.373
5520.75 446.239
5523.62 405.808
5526.49 451.16
5529.36 482.66
5532.23 524.871
5535.1 463.422
5537.97 556.523
5540.85 578.129
5543.72 460.495
5546.59 422.707
5549.46 410.867
5552.33 440.677
5555.2 370.444
5558.07 425.872
5560.94 439.966
5563.81 487.886
5566.68 440.379
5569.55 549.701
5572.43 599.727
5575.3 450.4
5578.17 443.447
5581.04 377.308
5583.91 426.74
5586.78 509.438
5589.65 367.418
5592.52 394.799
5595.39 564.453
5598.26 612.808
5601.13 608.301
5604.01 587.956
5606.88 505.164
5609.75 468.461
5612.62 494.654
5615.49 424.071
5618.36 529.405
5621.23 505.023
5624.1 503.35
5626.97 459.489
5629.84 533.446
5632.71 558.558
5635.59 542.615
5638.46 484.677
5641.33 516.386
5644.2 472.764
5647.07 517.559
5649.94 491.605
5652.81 575.225
5655.68 504.43
5658.55 413.552
5661.42 431.535
5664.29 399.912
5667.17 501.1
5670.04 506.466
5672.91 435.391
5675.78 501.093
5678.65 495.12
5681.52 503.385
5684.39 464.314
5687.26 498.905
5690.13 558.296
5693 506.31
5695.87 514.017
5698.75 385.457
5701.62 454.738
5704.49 461.781
5707.36 474.565
5710.23 496.238
5713.1 522.808
5715.97 463.439
5718.84 472.598
5721.71 530.268
5724.58 514.563
5727.45 539.822
5730.33 473.806
5733.2 351.793
5736.07 498.787
5738.94 615.938
5741.81 509.822
5744.68 492.261
5747.55 290.292
5750.42 436.704
5753.29 425.392
5756.16 401.126
5759.03 379.476
5761.9 414.367
5764.78 615.221
5767.65 662.51
5770.52 555.951
5773.39 547.325
5776.26 405.75
5779.13 409.27
5782 436.298
5784.87 463.501
5787.74 543.291
5790.61 613.927
5793.48 588.163
5796.36 480.789
5799.23 534.872
5802.1 372.249
5804.97 456.075
5807.84 489.175
5810.71 506.721
5813.58 514.11
5816.45 387.245
5819.32 347.931
5822.19 482.479
5825.06 461.489
5827.94 499.26
5830.81 548.121
5833.68 484.211
5836.55 400.652
5839.42 537.919
5842.29 381.148
5845.16 426.945
5848.03 492.589
5850.9 431.602
5853.77 426.575
5856.65 447.978
5859.52 510.529
5862.39 572.724
5865.26 522.686
5868.13 429.204
5871 500.452
5873.87 506.863
5876.74 362.738
