scanname 扫描247
timestamp 1/1/1970 00:10
ccdbias 1678.86
ccdgain 2.46132
sigmaread 11.4449
laserwavenum -0.407414
wavenumcorrection -0.680319
scancount 1
totalexposurems 3000
singleexposurems 3000
measurementstate Unknown
scanmode Identification
snr 9.21559 9.21559 9.21559
replacelist 0
peaks 31
254.449 0.0947611 0 0.568369 4.28457e-05
296.582 0.0955427 0 4.5327 0.000377838
356.333 0.0791424 0 1.43006 0.000168965
382.178 0.102968 0 6.62898 0.000547584
415.854 0.0922403 0 4.02053 0.000490044
456.022 0.0934577 0 4.63239 0.000393893
538.48 0.0637935 0 0.149993 1.02332e-05
587.443 0.085901 0 2.17085 0.000235726
643.888 0.0729446 0 0.926453 0.000172284
690.981 0.0711592 0 1.02289 0.000198403
737.076 0.0667919 0 0.514786 5.26611e-05
758.367 0.0724128 0 1.03423 0.000187726
777.478 0.0686786 0 0.864119 0.000174134
805.385 0.0995006 0 7.61991 0.00086366
834.344 0.126378 0 11.3129 0.0013079
945.663 0.0616061 0 0.358614 5.71263e-05
988.075 0.0563597 0 0.180323 1.27914e-05
1137.18 0.061704 0 0.710425 0.000227619
1164.4 0.0594785 0 0.54905 0.000212803
1195.95 0.0848862 0 2.67358 0.000519561
1253.44 0.0775698 0 2.71428 0.000576564
1348.82 0.187697 0 4.85929 0.00134002
1358.05 0.231458 0 8.58531 0.00211759
1382.6 0.0894845 0 0.527941 0.000279269
1385.68 0.0928027 0 0.581285 4.40565e-05
1474.16 0.0562776 0 0.262439 8.79012e-05
1539.49 0.0926619 0 0.790758 0.000478185
1568.07 0.074115 0 1.72587 0.000593206
1606.81 0.103687 0 3.85819 0.00110088
2329.33 0.0368652 0 0.0408512 8.21484e-05
2877.8 0.130411 0 0.325428 0.00488791
finalresult No match found 1A5911	6.64316e-24
spectrum 2048
-91.3765 0.00581184
-88.7785 0.00694304
-86.1821 0.896382
-83.5876 0.834895
-80.9946 0.865423
-78.4035 0.966123
-75.814 0.970059
-73.2261 1.0663
-70.6401 1.02962
-68.0557 1.10818
-65.473 1.23843
-62.892 1.21232
-60.3128 1.334
-57.7351 1.44272
-55.1592 1.46745
-52.585 1.48516
-50.0125 1.54522
-47.4418 1.50012
-44.8726 1.65918
-42.3052 1.64253
-39.7394 1.6959
-37.1753 1.80076
-34.613 1.87388
-32.0522 1.85103
-29.4932 1.89469
-26.9358 1.98326
-24.3803 1.98474
-21.8263 2.03505
-19.2739 2.12796
-16.7233 2.20198
-14.1743 2.35944
-11.6271 2.58115
-9.08144 1.14239
-6.53759 0.425986
-3.99531 0.161976
-1.45465 0.131978
1.08418 0.132303
3.62153 0.133138
6.15703 0.142116
8.69097 0.394432
11.2232 1.05744
13.7538 1.38092
16.2828 1.62998
18.81 1.69832
21.3356 1.52035
23.8596 1.51736
26.3819 1.50352
28.9026 1.52808
31.4216 1.58613
33.9389 1.59738
36.4546 1.54554
38.9687 1.55703
41.481 1.42377
43.9918 1.39957
46.5009 1.35161
49.0084 1.29176
51.5142 1.23412
54.0183 1.18172
56.5209 1.1536
59.0218 1.04216
61.521 1.02538
64.0186 1.0117
66.5146 0.935288
69.009 0.910278
71.5017 0.960536
73.9927 0.85579
76.4821 0.813109
78.97 0.903538
81.4561 0.862148
83.9407 0.861551
86.4236 0.819549
88.9049 0.818422
91.3846 0.794122
93.8626 0.712825
96.3391 0.719566
98.8138 0.652127
101.287 0.766821
103.758 0.541536
106.228 0.575233
108.697 0.610524
111.163 0.518683
113.628 0.471075
116.092 0.444448
118.554 0.405175
121.014 0.31301
123.473 0.278417
125.93 0.278726
128.385 0.253061
130.839 0.234455
133.291 0.22201
135.742 0.203991
138.191 0.181551
140.638 0.166115
143.084 0.153091
145.528 0.14627
147.971 0.131578
150.412 0.126571
152.851 0.118596
155.289 0.117518
157.726 0.11529
160.16 0.11643
162.593 0.121788
165.025 0.13459
167.455 0.15198
169.883 0.181493
172.31 0.225623
174.735 0.263513
177.158 0.267112
179.58 0.238842
182.001 0.194221
184.419 0.154364
186.837 0.133049
189.252 0.120066
191.666 0.113538
194.079 0.106075
196.49 0.10204
198.899 0.0960868
201.307 0.0894205
203.713 0.085656
206.118 0.0842461
208.521 0.083203
210.922 0.0795202
213.322 0.0809617
215.721 0.080095
218.117 0.0807795
220.513 0.0775583
222.906 0.0764448
225.298 0.0799618
227.689 0.0799555
230.078 0.0798495
232.465 0.0785902
234.851 0.0772367
237.235 0.0798706
239.618 0.0807114
241.999 0.0824137
244.379 0.088847
246.757 0.0896463
249.134 0.0923873
251.509 0.0939146
253.882 0.0964485
256.254 0.0951345
258.625 0.0933296
260.994 0.0897401
263.361 0.0915674
265.727 0.0890058
268.091 0.0882942
270.453 0.0869256
272.815 0.0789386
275.174 0.0753112
277.532 0.0741941
279.889 0.0737142
282.244 0.0727573
284.597 0.072148
286.949 0.0729487
289.3 0.0765377
291.648 0.0844026
293.996 0.092873
296.342 0.0970104
298.686 0.0942094
301.029 0.0870181
303.37 0.0784107
305.71 0.0732668
308.048 0.071754
310.385 0.0705033
312.72 0.0669639
315.053 0.0678475
317.385 0.068341
319.716 0.0696608
322.045 0.0685362
324.373 0.0689179
326.699 0.0678965
329.023 0.0705516
331.347 0.0721254
333.668 0.0744907
335.988 0.070914
338.307 0.0728944
340.624 0.068857
342.939 0.0703692
345.253 0.0687875
347.566 0.0688836
349.877 0.0735689
352.186 0.0738278
354.494 0.0785634
356.801 0.0797369
359.106 0.0780549
361.409 0.0757379
363.711 0.0690993
366.012 0.068114
368.311 0.0677891
370.609 0.068687
372.905 0.0718251
375.199 0.0772143
377.492 0.0889028
379.784 0.100038
382.074 0.104976
384.363 0.0997566
386.65 0.0910536
388.935 0.0784278
391.22 0.0711616
393.502 0.0693214
395.784 0.0696205
398.063 0.0684853
400.342 0.07318
402.619 0.0714751
404.894 0.0715608
407.168 0.0693182
409.44 0.0714043
411.711 0.083427
413.981 0.092542
416.248 0.0927401
418.515 0.08913
420.78 0.0758986
423.044 0.0694784
425.306 0.0641096
427.566 0.0633842
429.826 0.0632223
432.083 0.0628645
434.34 0.0620734
436.594 0.0634443
438.848 0.0635491
441.1 0.0654509
443.35 0.0669091
445.599 0.0694029
447.847 0.0733246
450.093 0.0791491
452.337 0.0876701
454.58 0.093989
456.822 0.0947939
459.062 0.088358
461.301 0.080228
463.539 0.0728722
465.775 0.0674246
468.009 0.0665667
470.242 0.0631482
472.474 0.062296
474.704 0.0607512
476.933 0.0617886
479.16 0.0608578
481.386 0.0613008
483.61 0.0623825
485.833 0.0617587
488.055 0.0598044
490.275 0.0609845
492.494 0.0593672
494.711 0.059932
496.927 0.061301
499.141 0.0608123
501.354 0.0601246
503.565 0.0587655
505.776 0.0621113
507.984 0.0617344
510.192 0.0597427
512.397 0.0591819
514.602 0.06192
516.805 0.0601646
519.006 0.0606948
521.207 0.0605522
523.405 0.0596597
525.603 0.0624796
527.799 0.0623091
529.993 0.066451
532.186 0.064442
534.378 0.0638737
536.568 0.0641264
538.757 0.0608815
540.944 0.0631106
543.13 0.0624493
545.315 0.0637531
547.498 0.0632247
549.68 0.0627743
551.86 0.0624395
554.04 0.0614051
556.217 0.0605545
558.393 0.0637361
560.568 0.0622059
562.742 0.0618387
564.914 0.063394
567.084 0.0615664
569.253 0.0640168
571.421 0.0653323
573.588 0.0625513
575.753 0.0665755
577.916 0.0690522
580.079 0.0729512
582.24 0.0783699
584.399 0.0860653
586.557 0.0864121
588.714 0.0834159
590.869 0.0826391
593.023 0.079435
595.176 0.0741293
597.327 0.0732514
599.477 0.0705233
601.625 0.0660891
603.772 0.0645324
605.918 0.0648278
608.062 0.0633446
610.205 0.062737
612.347 0.0631949
614.487 0.061601
616.626 0.0616552
618.763 0.0633709
620.899 0.0614384
623.034 0.0625181
625.167 0.063363
627.299 0.0610771
629.43 0.0600106
631.559 0.0615402
633.687 0.0620749
635.813 0.0644668
637.938 0.0673836
640.062 0.0690721
642.184 0.0725853
644.305 0.0747032
646.425 0.0710572
648.544 0.0683611
650.661 0.0655515
652.776 0.0635545
654.89 0.0643633
657.003 0.0613025
659.115 0.0620129
661.225 0.0612945
663.334 0.062364
665.441 0.0635549
667.548 0.0638134
669.652 0.0651158
671.756 0.0639314
673.858 0.061077
675.959 0.0627428
678.058 0.0626746
680.156 0.0608215
682.253 0.0591758
684.349 0.0617222
686.443 0.0681983
688.535 0.0693023
690.627 0.0726651
692.717 0.0694521
694.806 0.06722
696.893 0.0650959
698.979 0.0635156
701.064 0.0647578
703.147 0.0623279
705.229 0.0632974
707.31 0.0627355
709.39 0.0616576
711.468 0.0616466
713.544 0.0614353
715.62 0.0631206
717.694 0.0630716
719.767 0.0620287
721.838 0.0627875
723.908 0.0630334
725.977 0.062087
728.045 0.0609106
730.111 0.0643516
732.176 0.0639031
734.239 0.0652784
736.302 0.0690349
738.363 0.0657123
740.422 0.068886
742.481 0.064507
744.538 0.0633456
746.593 0.0617211
748.648 0.0655695
750.701 0.0637142
752.753 0.0668274
754.803 0.0695737
756.852 0.0712956
758.9 0.0731469
760.946 0.0725329
762.992 0.0663414
765.036 0.0647721
767.078 0.0618127
769.12 0.061194
771.16 0.0612333
773.198 0.0667196
775.236 0.0672868
777.272 0.0680131
779.307 0.0682992
781.341 0.0665358
783.373 0.0624069
785.404 0.0611273
787.434 0.0625419
789.462 0.0604825
791.489 0.063474
793.515 0.0627536
795.539 0.0626296
797.563 0.0668823
799.585 0.0691386
801.605 0.0868735
803.625 0.100301
805.643 0.100083
807.66 0.0949014
809.675 0.0773755
811.69 0.0690054
813.703 0.0631878
815.714 0.0625504
817.725 0.0627833
819.734 0.0628371
821.742 0.0667365
823.749 0.0651587
825.754 0.067782
827.758 0.0737562
829.761 0.0925005
831.763 0.11606
833.763 0.129014
835.762 0.126777
837.76 0.109726
839.756 0.0872652
841.751 0.0737441
843.745 0.0684492
845.738 0.0663304
847.729 0.0643051
849.72 0.0670004
851.709 0.0717616
853.696 0.0699833
855.683 0.0676695
857.668 0.0676458
859.652 0.0645634
861.634 0.0621209
863.616 0.0631765
865.596 0.0635424
867.575 0.0634786
869.552 0.0647707
871.529 0.0624387
873.504 0.0614735
875.478 0.0612617
877.45 0.0609839
879.422 0.0584261
881.392 0.0618677
883.361 0.0590391
885.329 0.0615299
887.295 0.0629531
889.26 0.0597312
891.224 0.0627066
893.187 0.0606248
895.148 0.059243
897.108 0.0627659
899.067 0.0591263
901.025 0.0599956
902.982 0.0610726
904.937 0.061716
906.891 0.0589332
908.844 0.0613966
910.795 0.0605634
912.746 0.0634834
914.695 0.0612896
916.643 0.0613983
918.589 0.0583284
920.535 0.0570568
922.479 0.0600545
924.422 0.0570903
926.364 0.0583419
928.304 0.0595144
930.244 0.0553486
932.182 0.0558197
934.119 0.0568191
936.054 0.0603115
937.989 0.0584098
939.922 0.0583895
941.854 0.061436
943.785 0.0616045
945.714 0.0621065
947.643 0.0631293
949.57 0.0601282
951.496 0.0592712
953.42 0.0559113
955.344 0.0562903
957.266 0.05519
959.187 0.0550365
961.107 0.0554714
963.026 0.0550153
964.943 0.0564253
966.86 0.0547123
968.775 0.0572641
970.689 0.0541761
972.601 0.0540456
974.513 0.0509324
976.423 0.0558124
978.332 0.0558806
980.24 0.0562856
982.147 0.0561197
984.052 0.0555193
985.956 0.0577502
987.859 0.0564948
989.761 0.0563809
991.662 0.0559092
993.561 0.0562762
995.46 0.0533265
997.357 0.0538664
999.253 0.056262
1001.15 0.0528513
1003.04 0.0559123
1004.93 0.0528576
1006.82 0.0513216
1008.71 0.055217
1010.6 0.0520756
1012.49 0.0538925
1014.38 0.0530655
1016.26 0.0535737
1018.15 0.0524699
1020.03 0.0502083
1021.91 0.0573179
1023.79 0.0528183
1025.67 0.0549731
1027.55 0.0538275
1029.43 0.0535419
1031.3 0.0533496
1033.18 0.0548943
1035.05 0.0546928
1036.92 0.0552043
1038.79 0.0532948
1040.66 0.0542313
1042.53 0.0528651
1044.4 0.0521158
1046.27 0.0536286
1048.13 0.0556686
1050 0.0536954
1051.86 0.0513065
1053.72 0.0521958
1055.58 0.0522763
1057.44 0.0537698
1059.3 0.0535627
1061.16 0.050226
1063.01 0.0525056
1064.87 0.0528836
1066.72 0.0538075
1068.57 0.051246
1070.43 0.0513727
1072.28 0.0500723
1074.13 0.0496011
1075.97 0.0531164
1077.82 0.0510024
1079.67 0.0526847
1081.51 0.0524241
1083.35 0.0525515
1085.2 0.051908
1087.04 0.0521632
1088.88 0.0512972
1090.72 0.0505425
1092.55 0.0565079
1094.39 0.051353
1096.22 0.0523102
1098.06 0.0517348
1099.89 0.0510449
1101.72 0.05099
1103.55 0.0495495
1105.38 0.0496955
1107.21 0.0495877
1109.04 0.0502227
1110.87 0.0483291
1112.69 0.0534789
1114.51 0.0485957
1116.34 0.0517864
1118.16 0.0519087
1119.98 0.0527368
1121.8 0.0510306
1123.62 0.050518
1125.43 0.0502938
1127.25 0.0533238
1129.07 0.052402
1130.88 0.0570633
1132.69 0.0565019
1134.5 0.0607802
1136.31 0.0624922
1138.12 0.060821
1139.93 0.0584603
1141.74 0.0583798
1143.54 0.0522258
1145.35 0.0507803
1147.15 0.050914
1148.95 0.0527695
1150.76 0.0515956
1152.56 0.0527459
1154.36 0.0518349
1156.15 0.0513272
1157.95 0.0543707
1159.75 0.0543468
1161.54 0.0586051
1163.33 0.0583054
1165.13 0.0619077
1166.92 0.0554412
1168.71 0.0558605
1170.5 0.0519572
1172.29 0.051412
1174.07 0.0548224
1175.86 0.0488642
1177.64 0.0517136
1179.43 0.0501553
1181.21 0.0554389
1182.99 0.0566778
1184.77 0.0567871
1186.55 0.0611112
1188.33 0.0659941
1190.11 0.0678842
1191.88 0.0757881
1193.66 0.0811158
1195.43 0.0842152
1197.2 0.0860059
1198.97 0.0801774
1200.74 0.0723519
1202.51 0.0657877
1204.28 0.0604619
1206.05 0.0549104
1207.82 0.0523053
1209.58 0.0552226
1211.34 0.0557407
1213.11 0.0531769
1214.87 0.0532723
1216.63 0.0512853
1218.39 0.0501824
1220.15 0.0500264
1221.91 0.0500926
1223.66 0.0521924
1225.42 0.0501055
1227.17 0.0489783
1228.92 0.0501456
1230.68 0.0496148
1232.43 0.0496252
1234.18 0.0500574
1235.92 0.0501327
1237.67 0.0519119
1239.42 0.0529922
1241.16 0.0537227
1242.91 0.0528198
1244.65 0.0528403
1246.39 0.0558373
1248.14 0.0623468
1249.88 0.0684479
1251.62 0.0745068
1253.35 0.0816726
1255.09 0.0740342
1256.83 0.0703559
1258.56 0.062896
1260.29 0.0589769
1262.03 0.0514311
1263.76 0.0551191
1265.49 0.0540091
1267.22 0.0514739
1268.95 0.0530785
1270.67 0.0507173
1272.4 0.0536975
1274.13 0.0520778
1275.85 0.0518428
1277.57 0.0528371
1279.29 0.0531298
1281.02 0.0520559
1282.74 0.0521617
1284.45 0.0536616
1286.17 0.0526877
1287.89 0.0555642
1289.6 0.0538634
1291.32 0.0569373
1293.03 0.05399
1294.75 0.0576746
1296.46 0.0533033
1298.17 0.0580132
1299.88 0.0558399
1301.58 0.0550783
1303.29 0.0591914
1305 0.0601082
1306.7 0.0597848
1308.41 0.0605998
1310.11 0.0638698
1311.81 0.0637315
1313.51 0.0627851
1315.21 0.0632974
1316.91 0.0647066
1318.61 0.0656997
1320.31 0.0682634
1322 0.0668814
1323.7 0.0710826
1325.39 0.0710962
1327.08 0.0710828
1328.78 0.0695791
1330.47 0.0708795
1332.16 0.0747233
1333.85 0.0743496
1335.53 0.0749513
1337.22 0.0782384
1338.9 0.0892009
1340.59 0.100541
1342.27 0.127085
1343.95 0.151578
1345.64 0.174351
1347.32 0.188743
1349 0.191019
1350.67 0.179476
1352.35 0.183578
1354.03 0.197991
1355.7 0.21666
1357.38 0.231901
1359.05 0.233665
1360.72 0.216578
1362.39 0.184152
1364.06 0.158651
1365.73 0.138675
1367.4 0.12053
1369.07 0.110559
1370.73 0.105321
1372.4 0.0957446
1374.06 0.0920107
1375.73 0.0894899
1377.39 0.087906
1379.05 0.0865339
1380.71 0.0883892
1382.37 0.0888314
1384.02 0.0873742
1385.68 0.0876158
1387.34 0.0858957
1388.99 0.0763495
1390.65 0.0744782
1392.3 0.068433
1393.95 0.0658707
1395.6 0.0656026
1397.25 0.0604016
1398.9 0.0621954
1400.55 0.0639016
1402.2 0.058801
1403.84 0.061608
1405.49 0.0605275
1407.13 0.058877
1408.77 0.0580358
1410.41 0.058955
1412.06 0.0581838
1413.7 0.054069
1415.33 0.0551162
1416.97 0.0547963
1418.61 0.0513328
1420.24 0.0551461
1421.88 0.0536716
1423.51 0.0554258
1425.15 0.0535939
1426.78 0.0516647
1428.41 0.0543491
1430.04 0.0555572
1431.67 0.0550271
1433.3 0.05776
1434.92 0.0561385
1436.55 0.0506818
1438.17 0.0541791
1439.8 0.0547497
1441.42 0.0546085
1443.04 0.0515237
1444.66 0.0557719
1446.28 0.0533487
1447.9 0.0540535
1449.52 0.052518
1451.14 0.0510251
1452.75 0.0542311
1454.37 0.0549431
1455.98 0.0521483
1457.6 0.0537045
1459.21 0.0525997
1460.82 0.0541383
1462.43 0.0512195
1464.04 0.0525948
1465.65 0.0525509
1467.26 0.053338
1468.86 0.0534833
1470.47 0.0537241
1472.07 0.0551697
1473.68 0.0559704
1475.28 0.0567555
1476.88 0.0573164
1478.48 0.0528276
1480.08 0.055565
1481.68 0.0503847
1483.28 0.0485037
1484.87 0.0518915
1486.47 0.0511986
1488.06 0.0519295
1489.66 0.049931
1491.25 0.0519363
1492.84 0.0505481
1494.43 0.0501149
1496.02 0.0506224
1497.61 0.0512826
1499.2 0.0492894
1500.79 0.0490694
1502.37 0.0489824
1503.96 0.0497627
1505.54 0.0521031
1507.12 0.0498103
1508.71 0.0528474
1510.29 0.0533922
1511.87 0.0496463
1513.45 0.0524924
1515.03 0.0510475
1516.6 0.0561924
1518.18 0.0533
1519.76 0.0525107
1521.33 0.0561674
1522.9 0.0542141
1524.48 0.0597054
1526.05 0.0595688
1527.62 0.0661411
1529.19 0.0706668
1530.76 0.0715789
1532.33 0.0792275
1533.89 0.0829287
1535.46 0.0856006
1537.03 0.0875383
1538.59 0.0942324
1540.15 0.0923799
1541.72 0.0906885
1543.28 0.0843672
1544.84 0.0796244
1546.4 0.0748962
1547.96 0.0755165
1549.51 0.0757775
1551.07 0.0734124
1552.63 0.0698453
1554.18 0.0670501
1555.73 0.0639998
1557.29 0.0589119
1558.84 0.0569364
1560.39 0.0583732
1561.94 0.0593862
1563.49 0.061431
1565.04 0.0682457
1566.59 0.0752573
1568.13 0.0714313
1569.68 0.0734823
1571.22 0.068123
1572.77 0.0611175
1574.31 0.0550925
1575.85 0.0516119
1577.39 0.0549802
1578.93 0.0528721
1580.47 0.0552793
1582.01 0.0503004
1583.55 0.0487879
1585.08 0.0526359
1586.62 0.052849
1588.15 0.0572225
1589.69 0.0564334
1591.22 0.0605939
1592.75 0.0586118
1594.28 0.0587602
1595.81 0.0597704
1597.34 0.0626239
1598.87 0.0638205
1600.4 0.0695325
1601.92 0.0831152
1603.45 0.0918961
1604.97 0.0969867
1606.49 0.106044
1608.02 0.103827
1609.54 0.0949363
1611.06 0.0806305
1612.58 0.0689565
1614.1 0.0641473
1615.62 0.05848
1617.13 0.0548515
1618.65 0.0509465
1620.16 0.0481763
1621.68 0.0476194
1623.19 0.0481231
1624.71 0.0428943
1626.22 0.0426905
1627.73 0.0454357
1629.24 0.0423972
1630.75 0.044053
1632.25 0.0449544
1633.76 0.0411061
1635.27 0.0475772
1636.77 0.0450354
1638.28 0.0412345
1639.78 0.0426797
1641.28 0.0455013
1642.79 0.0451527
1644.29 0.0476151
1645.79 0.0418513
1647.29 0.0439176
1648.78 0.0451567
1650.28 0.0425417
1651.78 0.0442278
1653.27 0.0416251
1654.77 0.042785
1656.26 0.0428123
1657.75 0.0406986
1659.25 0.0433113
1660.74 0.0403471
1662.23 0.0405731
1663.72 0.03835
1665.21 0.0407191
1666.69 0.0415689
1668.18 0.0431532
1669.66 0.0415313
1671.15 0.0417266
1672.63 0.0403082
1674.12 0.0403201
1675.6 0.0400305
1677.08 0.0408681
1678.56 0.0410277
1680.04 0.0443939
1681.52 0.0410785
1683 0.0394093
1684.47 0.0404443
1685.95 0.0422725
1687.42 0.0388111
1688.9 0.0405103
1690.37 0.0410185
1691.84 0.0386961
1693.32 0.0386436
1694.79 0.043513
1696.26 0.0405815
1697.73 0.0406421
1699.19 0.0425812
1700.66 0.0413595
1702.13 0.039505
1703.59 0.0423616
1705.06 0.0415893
1706.52 0.0428802
1707.98 0.0414269
1709.45 0.0432715
1710.91 0.041554
1712.37 0.0412305
1713.83 0.039222
1715.29 0.0435223
1716.74 0.0378318
1718.2 0.0403405
1719.66 0.0396922
1721.11 0.0394612
1722.57 0.0409421
1724.02 0.0404176
1725.47 0.0380771
1726.92 0.0401933
1728.37 0.0377485
1729.82 0.039826
1731.27 0.0378474
1732.72 0.0412391
1734.17 0.0415864
1735.62 0.0354914
1737.06 0.0363053
1738.51 0.0401434
1739.95 0.0384165
1741.39 0.0390052
1742.83 0.0397401
1744.28 0.0392524
1745.72 0.0400973
1747.16 0.038873
1748.59 0.0404045
1750.03 0.040552
1751.47 0.0395247
1752.91 0.0386213
1754.34 0.0396454
1755.78 0.0437799
1757.21 0.0364287
1758.64 0.0370465
1760.07 0.038152
1761.51 0.036978
1762.94 0.0390847
1764.37 0.0389398
1765.79 0.041074
1767.22 0.0410482
1768.65 0.0421169
1770.07 0.0382488
1771.5 0.0399503
1772.92 0.035966
1774.35 0.0401702
1775.77 0.0396491
1777.19 0.0428663
1778.61 0.0398992
1780.03 0.0394483
1781.45 0.0379523
1782.87 0.0379713
1784.29 0.0387146
1785.71 0.0389342
1787.12 0.0357716
1788.54 0.0391844
1789.95 0.0385622
1791.36 0.0372991
1792.78 0.0369504
1794.19 0.0394664
1795.6 0.0350153
1797.01 0.0395921
1798.42 0.0389398
1799.83 0.0396163
1801.24 0.0393221
1802.64 0.0397734
1804.05 0.0406495
1805.45 0.0387487
1806.86 0.0392722
1808.26 0.043593
1809.66 0.0395954
1811.07 0.0467003
1812.47 0.0401161
1813.87 0.0443646
1815.27 0.0387127
1816.66 0.0372274
1818.06 0.0433834
1819.46 0.0388427
1820.85 0.0377733
1822.25 0.0417638
1823.64 0.0414261
1825.04 0.0379598
1826.43 0.0403578
1827.82 0.0439601
1829.21 0.0405254
1830.6 0.0366793
1831.99 0.0399357
1833.38 0.0370496
1834.77 0.0434351
1836.16 0.0398203
1837.54 0.0367038
1838.93 0.0377674
1840.31 0.0405813
1841.7 0.0397808
1843.08 0.0390217
1844.46 0.0384681
1845.84 0.036046
1847.22 0.0372442
1848.6 0.0379302
1849.98 0.0379113
1851.36 0.0379655
1852.74 0.0350063
1854.11 0.0397435
1855.49 0.0353581
1856.86 0.0364917
1858.24 0.0361982
1859.61 0.0389705
1860.98 0.0359194
1862.35 0.0370689
1863.72 0.0345496
1865.09 0.0371516
1866.46 0.0373674
1867.83 0.0370632
1869.2 0.0374258
1870.57 0.0400487
1871.93 0.0323776
1873.3 0.0387244
1874.66 0.0400153
1876.03 0.0356976
1877.39 0.0385326
1878.75 0.0372818
1880.11 0.0391067
1881.47 0.0325512
1882.83 0.0342208
1884.19 0.0340831
1885.55 0.0352967
1886.9 0.035715
1888.26 0.0393423
1889.62 0.0327833
1890.97 0.0376713
1892.32 0.0376206
1893.68 0.037775
1895.03 0.0327161
1896.38 0.0372199
1897.73 0.0370945
1899.08 0.0362903
1900.43 0.0312647
1901.78 0.035439
1903.13 0.0357925
1904.47 0.0366984
1905.82 0.0403364
1907.16 0.0387772
1908.51 0.0359973
1909.85 0.0350815
1911.2 0.0345765
1912.54 0.0380543
1913.88 0.0387721
1915.22 0.0383545
1916.56 0.0396747
1917.9 0.0364967
1919.24 0.0344526
1920.57 0.0374651
1921.91 0.0355359
1923.25 0.0391691
1924.58 0.0385272
1925.91 0.036057
1927.25 0.0377535
1928.58 0.0407634
1929.91 0.0358674
1931.24 0.0349471
1932.57 0.0360076
1933.9 0.0347172
1935.23 0.0374883
1936.56 0.039331
1937.89 0.0376554
1939.21 0.0351779
1940.54 0.0381074
1941.86 0.0392261
1943.19 0.0351633
1944.51 0.0371854
1945.83 0.037032
1947.15 0.0388802
1948.47 0.0364526
1949.79 0.0378221
1951.11 0.0338269
1952.43 0.0381495
1953.75 0.0379547
1955.07 0.0348715
1956.38 0.0382798
1957.7 0.0370562
1959.01 0.0343487
1960.33 0.0347319
1961.64 0.0341873
1962.95 0.031506
1964.26 0.0323523
1965.58 0.0333307
1966.89 0.0355461
1968.2 0.0303403
1969.5 0.0324306
1970.81 0.035005
1972.12 0.0391112
1973.42 0.0366393
1974.73 0.032921
1976.03 0.0379616
1977.34 0.0372259
1978.64 0.0352665
1979.94 0.0357928
1981.25 0.0369671
1982.55 0.0360026
1983.85 0.0345876
1985.15 0.0337338
1986.44 0.0347266
1987.74 0.0369717
1989.04 0.0377139
1990.34 0.0328187
1991.63 0.0327326
1992.93 0.0332242
1994.22 0.0351099
1995.51 0.0334571
1996.81 0.0347779
1998.1 0.0330911
1999.39 0.0324314
2000.68 0.0340794
2001.97 0.0337359
2003.26 0.0345173
2004.55 0.0366157
2005.83 0.0359459
2007.12 0.034325
2008.4 0.0334374
2009.69 0.0357731
2010.97 0.0345924
2012.26 0.0344583
2013.54 0.0320652
2014.82 0.0335394
2016.1 0.0334708
2017.38 0.0337515
2018.66 0.0328956
2019.94 0.0324407
2021.22 0.0322909
2022.5 0.0367084
2023.77 0.0346621
2025.05 0.031513
2026.33 0.033789
2027.6 0.0357647
2028.87 0.0304737
2030.15 0.0343719
2031.42 0.0335157
2032.69 0.0309723
2033.96 0.0341626
2035.23 0.0315096
2036.5 0.0345238
2037.77 0.0329259
2039.04 0.0316299
2040.3 0.0340783
2041.57 0.031311
2042.83 0.0338419
2044.1 0.032838
2045.36 0.0361076
2046.63 0.0309234
2047.89 0.031979
2049.15 0.0325847
2050.41 0.0359209
2051.67 0.0338076
2052.93 0.0337688
2054.19 0.0366043
2055.45 0.0333603
2056.71 0.033337
2057.96 0.0330763
2059.22 0.032784
2060.47 0.0306667
2061.73 0.0328854
2062.98 0.0333541
2064.24 0.0342292
2065.49 0.0341709
2066.74 0.0357871
2067.99 0.0326899
2069.24 0.0324362
2070.49 0.0329502
2071.74 0.0325907
2072.99 0.0317089
2074.23 0.0296797
2075.48 0.0343098
2076.72 0.0344965
2077.97 0.0332153
2079.21 0.0294911
2080.46 0.0296782
2081.7 0.0350166
2082.94 0.0325445
2084.18 0.0345588
2085.42 0.0296174
2086.66 0.0305706
2087.9 0.0329485
2089.14 0.0313333
2090.38 0.0342325
2091.61 0.0317999
2092.85 0.0315603
2094.09 0.0313269
2095.32 0.0353985
2096.56 0.0328578
2097.79 0.0358854
2099.02 0.0363118
2100.25 0.033893
2101.48 0.0332895
2102.71 0.0323757
2103.94 0.0342112
2105.17 0.0351195
2106.4 0.0368696
2107.63 0.0314073
2108.86 0.0357947
2110.08 0.0345644
2111.31 0.0366255
2112.53 0.0344886
2113.76 0.0315648
2114.98 0.0335063
2116.2 0.0352325
2117.42 0.0354133
2118.64 0.0337442
2119.86 0.0374937
2121.08 0.0333592
2122.3 0.0363393
2123.52 0.0353428
2124.74 0.0312876
2125.95 0.0334451
2127.17 0.0317578
2128.39 0.0368142
2129.6 0.0344841
2130.81 0.0334935
2132.03 0.0330406
2133.24 0.0362914
2134.45 0.0338323
2135.66 0.031476
2136.87 0.0292678
2138.08 0.0359615
2139.29 0.0328698
2140.5 0.0330971
2141.71 0.0353222
2142.91 0.0348459
2144.12 0.0301468
2145.33 0.0306831
2146.53 0.0333584
2147.73 0.0297742
2148.94 0.0304471
2150.14 0.0341465
2151.34 0.032475
2152.54 0.0367267
2153.74 0.0337914
2154.94 0.0340929
2156.14 0.0330332
2157.34 0.03478
2158.54 0.0305771
2159.73 0.0412598
2160.93 0.0317333
2162.13 0.03048
2163.32 0.0335276
2164.51 0.0287173
2165.71 0.0310494
2166.9 0.0319239
2168.09 0.0340494
2169.28 0.0305452
2170.47 0.0309656
2171.66 0.0337398
2172.85 0.0300424
2174.04 0.0356149
2175.23 0.0349193
2176.42 0.030428
2177.6 0.0340838
2178.79 0.030822
2179.97 0.0327237
2181.16 0.0352516
2182.34 0.0298406
2183.52 0.0309956
2184.71 0.0328326
2185.89 0.0309303
2187.07 0.031155
2188.25 0.0363292
2189.43 0.03271
2190.61 0.0319504
2191.78 0.0277567
2192.96 0.0348819
2194.14 0.0340666
2195.31 0.0311511
2196.49 0.0330491
2197.66 0.0329623
2198.84 0.0308136
2200.01 0.0338764
2201.18 0.0321998
2202.36 0.0317434
2203.53 0.0343404
2204.7 0.0310631
2205.87 0.0372193
2207.04 0.0283747
2208.2 0.0304935
2209.37 0.0318017
2210.54 0.0322094
2211.7 0.0301292
2212.87 0.0306829
2214.03 0.034956
2215.2 0.0326917
2216.36 0.0346912
2217.53 0.0324375
2218.69 0.0317716
2219.85 0.0343257
2221.01 0.0328475
2222.17 0.0280308
2223.33 0.0307346
2224.49 0.0351846
2225.65 0.0304632
2226.8 0.0354636
2227.96 0.0323331
2229.12 0.0317753
2230.27 0.0327313
2231.43 0.0251314
2232.58 0.0377413
2233.73 0.0321612
2234.89 0.0351205
2236.04 0.0333274
2237.19 0.037136
2238.34 0.0318978
2239.49 0.0316195
2240.64 0.0350368
2241.79 0.0314526
2242.93 0.0341628
2244.08 0.0316583
2245.23 0.0366047
2246.37 0.0306292
2247.52 0.0342692
2248.66 0.0363176
2249.81 0.0308454
2250.95 0.0328254
2252.09 0.0311429
2253.23 0.0316752
2254.37 0.0357961
2255.51 0.0376621
2256.65 0.0308541
2257.79 0.0315899
2258.93 0.026918
2260.07 0.0367799
2261.21 0.0325987
2262.34 0.0377537
2263.48 0.0351773
2264.61 0.0300275
2265.75 0.0342588
2266.88 0.0338693
2268.01 0.0353484
2269.15 0.0369355
2270.28 0.0327602
2271.41 0.0314071
2272.54 0.0319911
2273.67 0.0343712
2274.8 0.0360537
2275.93 0.036311
2277.05 0.029907
2278.18 0.0376918
2279.31 0.033299
2280.43 0.032946
2281.56 0.0366653
2282.68 0.0342457
2283.8 0.0295195
2284.93 0.0325931
2286.05 0.0327095
2287.17 0.0329896
2288.29 0.0289485
2289.41 0.0355746
2290.53 0.0296142
2291.65 0.032123
2292.77 0.0350824
2293.89 0.037205
2295 0.036272
2296.12 0.0349585
2297.23 0.0315598
2298.35 0.0354617
2299.46 0.0368618
2300.58 0.0362055
2301.69 0.0350708
2302.8 0.0419582
2303.91 0.0279862
2305.02 0.0383782
2306.13 0.0331664
2307.24 0.0350378
2308.35 0.0314914
2309.46 0.030197
2310.57 0.0350174
2311.68 0.0337798
2312.78 0.0323363
2313.89 0.0308201
2314.99 0.0320151
2316.1 0.0311479
2317.2 0.0348318
2318.3 0.0327363
2319.4 0.0303057
2320.51 0.0314319
2321.61 0.0351994
2322.71 0.0346865
2323.81 0.0342376
2324.91 0.0274493
2326 0.0369009
2327.1 0.0335312
2328.2 0.039392
2329.3 0.037651
2330.39 0.0325501
2331.49 0.0387444
2332.58 0.0422207
2333.67 0.0392417
2334.77 0.0318449
2335.86 0.0305617
2336.95 0.0308303
2338.04 0.0308125
2339.13 0.0290962
2340.22 0.0352703
2341.31 0.0341803
2342.4 0.0371851
2343.49 0.0324526
2344.58 0.032153
2345.66 0.0339231
2346.75 0.0300105
2347.83 0.0318168
2348.92 0.0370032
2350 0.0270775
2351.09 0.0325524
2352.17 0.0286646
2353.25 0.0311176
2354.33 0.0304971
2355.41 0.0387454
2356.49 0.0289497
2357.57 0.0364503
2358.65 0.032334
2359.73 0.035855
2360.8 0.0307451
2361.88 0.0331734
2362.96 0.0298574
2364.03 0.0432432
2365.11 0.0351405
2366.18 0.0292933
2367.26 0.0303157
2368.33 0.0335916
2369.4 0.0342329
2370.47 0.0336542
2371.54 0.0323313
2372.61 0.0300195
2373.68 0.0344817
2374.75 0.0346828
2375.82 0.028558
2376.89 0.0305078
2377.96 0.0297808
2379.02 0.0310193
2380.09 0.0350934
2381.15 0.0354311
2382.22 0.0312075
2383.28 0.0334271
2384.34 0.032273
2385.41 0.0351915
2386.47 0.0340645
2387.53 0.0346939
2388.59 0.0302183
2389.65 0.0282315
2390.71 0.0368013
2391.77 0.0327141
2392.83 0.0343064
2393.88 0.0341823
2394.94 0.031647
2396 0.0268449
2397.05 0.0346255
2398.11 0.0354113
2399.16 0.035121
2400.21 0.0290879
2401.27 0.0294826
2402.32 0.0364788
2403.37 0.0350131
2404.42 0.0318593
2405.47 0.0330326
2406.52 0.0394545
2407.57 0.0321745
2408.62 0.0355732
2409.67 0.0350692
2410.71 0.036245
2411.76 0.030141
2412.81 0.030934
2413.85 0.0343791
2414.9 0.0324393
2415.94 0.0325925
2416.98 0.030744
2418.03 0.0389629
2419.07 0.0449628
2420.11 0.0363949
2421.15 0.0269367
2422.19 0.0354538
2423.23 0.0337992
2424.27 0.0319629
2425.31 0.0352667
2426.35 0.0266239
2427.38 0.0324777
2428.42 0.0280753
2429.45 0.0311823
2430.49 0.0383167
2431.52 0.0326493
2432.56 0.036221
2433.59 0.0365049
2434.62 0.0344862
2435.65 0.0357989
2436.69 0.0334276
2437.72 0.0329042
2438.75 0.0369316
2439.78 0.0361429
2440.8 0.0314076
2441.83 0.0310814
2442.86 0.0402147
2443.89 0.0363432
2444.91 0.0307444
2445.94 0.0315201
2446.96 0.031915
2447.99 0.0311298
2449.01 0.0327161
2450.03 0.0321821
2451.06 0.0371314
2452.08 0.0358038
2453.1 0.0408043
2454.12 0.0352183
2455.14 0.0291423
2456.16 0.034635
2457.18 0.0307404
2458.2 0.0327123
2459.21 0.0268651
2460.23 0.0326648
2461.25 0.033818
2462.26 0.0381259
2463.28 0.0382938
2464.29 0.0306348
2465.3 0.0357661
2466.32 0.0345018
2467.33 0.0298534
2468.34 0.0278037
2469.35 0.0296397
2470.36 0.0311186
2471.37 0.0323377
2472.38 0.0308891
2473.39 0.0330894
2474.4 0.0327648
2475.41 0.0296175
2476.41 0.0298958
2477.42 0.0348512
2478.42 0.0342806
2479.43 0.0237458
2480.43 0.0366083
2481.44 0.0392499
2482.44 0.0365512
2483.44 0.0355503
2484.44 0.0355526
2485.44 0.031966
2486.44 0.0357993
2487.44 0.0303974
2488.44 0.0361014
2489.44 0.0320897
2490.44 0.036137
2491.44 0.036899
2492.43 0.0389289
2493.43 0.0267203
2494.42 0.0363548
2495.42 0.0428422
2496.41 0.0323468
2497.41 0.0347252
2498.4 0.0374356
2499.39 0.0331578
2500.38 0.0256924
2501.38 0.0318111
2502.37 0.0315724
2503.36 0.032161
2504.34 0.032814
2505.33 0.0372468
2506.32 0.0407071
2507.31 0.0327216
2508.3 0.0296376
2509.28 0.0373506
2510.27 0.0317941
2511.25 0.0304404
2512.24 0.0418426
2513.22 0.0306704
2514.2 0.0260382
2515.19 0.0391416
2516.17 0.0336863
2517.15 0.0413191
2518.13 0.0347653
2519.11 0.0366507
2520.09 0.0339089
2521.07 0.0440606
2522.04 0.0352606
2523.02 0.0346587
2524 0.0389877
2524.97 0.0282374
2525.95 0.0356336
2526.92 0.0337479
2527.9 0.0365449
2528.87 0.036381
2529.85 0.0361494
2530.82 0.0334695
2531.79 0.0319882
2532.76 0.029706
2533.73 0.0314255
2534.7 0.0238603
2535.67 0.0332992
2536.64 0.0363918
2537.61 0.0416891
2538.58 0.0350103
2539.54 0.034696
2540.51 0.0312033
2541.47 0.040741
2542.44 0.0421317
2543.4 0.0340491
2544.37 0.041564
2545.33 0.0306495
2546.29 0.0386854
2547.26 0.038182
2548.22 0.0369988
2549.18 0.0310259
2550.14 0.0311545
2551.1 0.0276342
2552.06 0.034335
2553.01 0.0336834
2553.97 0.0348402
2554.93 0.0376853
2555.89 0.0379174
2556.84 0.0342821
2557.8 0.0385805
2558.75 0.0316936
2559.71 0.0399716
2560.66 0.034242
2561.61 0.0384521
2562.56 0.0347883
2563.51 0.0326447
2564.47 0.0407965
2565.42 0.0305374
2566.37 0.0311905
2567.31 0.0415973
2568.26 0.0374535
2569.21 0.0397087
2570.16 0.0255792
2571.11 0.0303961
2572.05 0.03667
2573 0.042663
2573.94 0.0317603
2574.89 0.0399072
2575.83 0.0274089
2576.77 0.0316752
2577.71 0.0309203
2578.66 0.0368203
2579.6 0.0427824
2580.54 0.0225203
2581.48 0.0340743
2582.42 0.0365865
2583.36 0.0248015
2584.29 0.0355189
2585.23 0.0379423
2586.17 0.0326476
2587.1 0.0378294
2588.04 0.0366889
2588.97 0.0327337
2589.91 0.0443348
2590.84 0.0318309
2591.77 0.0307398
2592.71 0.0453573
2593.64 0.034578
2594.57 0.0249077
2595.5 0.0351095
2596.43 0.0343063
2597.36 0.037822
2598.29 0.0344816
2599.22 0.0300262
2600.15 0.0279558
2601.07 0.0358413
2602 0.0363064
2602.93 0.0342788
2603.85 0.0355621
2604.77 0.0441461
2605.7 0.0268113
2606.62 0.0356297
2607.54 0.0422574
2608.47 0.0288561
2609.39 0.0382405
2610.31 0.0316619
2611.23 0.0290175
2612.15 0.0363095
2613.07 0.0356818
2613.99 0.0340712
2614.91 0.0395606
2615.82 0.034807
2616.74 0.0278396
2617.66 0.0457841
2618.57 0.032986
2619.49 0.0323548
2620.4 0.0419425
2621.31 0.0361096
2622.23 0.0338477
2623.14 0.0424548
2624.05 0.0354654
2624.96 0.0367727
2625.87 0.0343257
2626.78 0.0360936
2627.69 0.0392097
2628.6 0.0427813
2629.51 0.0250474
2630.42 0.0285553
2631.32 0.0345838
2632.23 0.0270935
2633.13 0.0242419
2634.04 0.0422592
2634.94 0.0414728
2635.85 0.0317643
2636.75 0.0326877
2637.65 0.0302746
2638.56 0.0368067
2639.46 0.0411734
2640.36 0.0351424
2641.26 0.0360602
2642.16 0.0360962
2643.06 0.0280743
2643.96 0.0335661
2644.85 0.0318119
2645.75 0.0432517
2646.65 0.0373653
2647.54 0.0370741
2648.44 0.0374462
2649.33 0.0390143
2650.23 0.0370047
2651.12 0.0380245
2652.01 0.0313864
2652.91 0.0275696
2653.8 0.0311702
2654.69 0.0306128
2655.58 0.0316883
2656.47 0.0315726
2657.36 0.0329916
2658.25 0.03143
2659.14 0.0434976
2660.02 0.0300367
2660.91 0.0261036
2661.8 0.046188
2662.68 0.0375139
2663.57 0.0382927
2664.45 0.0338411
2665.34 0.0226393
2666.22 0.0402418
2667.1 0.0455068
2667.98 0.0280809
2668.87 0.0445291
2669.75 0.0382624
2670.63 0.0344222
2671.51 0.039995
2672.39 0.0316462
2673.26 0.0360768
2674.14 0.0373541
2675.02 0.0345188
2675.9 0.0294315
2676.77 0.037997
2677.65 0.0245535
2678.52 0.0417255
2679.4 0.0371259
2680.27 0.0341768
2681.14 0.0220299
2682.01 0.038082
2682.89 0.0350458
2683.76 0.0279802
2684.63 0.0469849
2685.5 0.0312425
2686.37 0.032479
2687.24 0.0381519
2688.1 0.0352016
2688.97 0.0350762
2689.84 0.030318
2690.7 0.0297047
2691.57 0.0271428
2692.43 0.0271112
2693.3 0.0360623
2694.16 0.0356375
2695.03 0.0358146
2695.89 0.040849
2696.75 0.0402859
2697.61 0.0357419
2698.47 0.0400503
2699.33 0.0347395
2700.19 0.0305266
2701.05 0.0353193
2701.91 0.0303857
2702.77 0.0453369
2703.63 0.0396191
2704.48 0.0354386
2705.34 0.0433948
2706.19 0.0394674
2707.05 0.0438059
2707.9 0.037916
2708.76 0.0539729
2709.61 0.0264148
2710.46 0.029324
2711.31 0.0299534
2712.16 0.0325477
2713.02 0.0441739
2713.86 0.0322768
2714.71 0.0316029
2715.56 0.0252085
2716.41 0.0293373
2717.26 0.0285873
2718.11 0.0427972
2718.95 0.0411821
2719.8 0.0269997
2720.64 0.0467212
2721.49 0.0393723
2722.33 0.0359082
2723.17 0.0392566
2724.02 0.024265
2724.86 0.041464
2725.7 0.0372712
2726.54 0.0427161
2727.38 0.0339814
2728.22 0.0281433
2729.06 0.0261854
2729.9 0.0392264
2730.74 0.0351199
2731.57 0.0363709
2732.41 0.0280985
2733.25 0.0405424
2734.08 0.0350739
2734.92 0.0223551
2735.75 0.038114
2736.58 0.0392033
2737.42 0.0273123
2738.25 0.0375847
2739.08 0.0399235
2739.91 0.038935
2740.74 0.0506348
2741.57 0.0262562
2742.4 0.0383835
2743.23 0.0326746
2744.06 0.0299433
2744.89 0.0291314
2745.71 0.0293076
2746.54 0.0321324
2747.37 0.033703
2748.19 0.0394122
2749.02 0.0427774
2749.84 0.027851
2750.66 0.0359649
2751.49 0.0445268
2752.31 0.0349236
2753.13 0.0440003
2753.95 0.0387071
2754.77 0.0263494
2755.59 0.0471712
2756.41 0.0240057
2757.23 0.0361751
2758.04 0.0308633
2758.86 0.0405722
2759.68 0.0344129
2760.49 0.0231605
2761.31 0.0384935
2762.12 0.036678
2762.94 0.0518754
2763.75 0.033156
2764.57 0.0358165
2765.38 0.0337059
2766.19 0.0223326
2767 0.0389527
2767.81 0.033507
2768.62 0.0301903
2769.43 0.0342053
2770.24 0.0406838
2771.05 0.0425459
2771.85 0.0398207
2772.66 0.0440997
2773.47 0.0272586
2774.27 0.0435968
2775.08 0.0429154
2775.88 0.0428826
2776.69 0.0375623
2777.49 0.0249221
2778.29 0.0362666
2779.09 0.0281114
2779.9 0.0338219
2780.7 0.0304465
2781.5 0.0424947
2782.3 0.0433685
2783.1 0.0354969
2783.89 0.0346917
2784.69 0.0329977
2785.49 0.03434
2786.29 0.0287392
2787.08 0.0389991
2787.88 0.0424194
2788.67 0.046851
2789.47 0.0401118
2790.26 0.0343327
2791.05 0.0426466
2791.84 0.0222237
2792.64 0.036167
2793.43 0.0381948
2794.22 0.0393963
2795.01 0.0156498
2795.8 0.0212955
2796.58 0.0275725
2797.37 0.0396257
2798.16 0.0311065
2798.95 0.0302626
2799.73 0.0321784
2800.52 0.0290797
2801.3 0.0435276
2802.09 0.0478482
2802.87 0.0290549
2803.65 0.0418577
2804.44 0.0312361
2805.22 0.0312681
2806 0.0402372
2806.78 0.0281054
2807.56 0.0561774
2808.34 0.0569363
2809.12 0.0412246
2809.9 0.0339676
2810.68 0.0424991
2811.45 0.0305102
2812.23 0.0311416
2813 0.0327877
2813.78 0.0402495
2814.55 0.026045
2815.33 0.0568968
2816.1 0.0405169
2816.87 0.05007
2817.65 0.0334221
2818.42 0.0478553
2819.19 0.038936
2819.96 0.0558844
2820.73 0.0454689
2821.5 0.0305115
2822.27 0.0439418
2823.03 0.0415332
2823.8 -0.0178685
2824.57 0.0514571
2825.33 0.0318025
2826.1 0.0373403
2826.86 0.0403568
2827.63 0.0377467
2828.39 0.0197413
2829.15 0.0466289
2829.92 0.0408479
2830.68 0.0554975
2831.44 0.0487968
2832.2 0.0325878
2832.96 0.0427641
2833.72 0.0398945
2834.48 0.0216547
2835.24 0.0410932
2835.99 0.0224675
2836.75 0.0397162
2837.51 0.0308163
2838.26 0.0276848
2839.02 0.0367555
2839.77 0.0562781
2840.52 0.0500388
2841.28 0.0372235
2842.03 0.0201975
2842.78 0.0455467
2843.53 0.0316756
2844.28 0.0362358
2845.03 0.0372135
2845.78 0.0491728
2846.53 0.046663
2847.28 0.0459309
2848.03 0.0323972
2848.78 0.0399747
2849.52 0.0492319
2850.27 0.0543175
2851.01 0.0483011
2851.76 0.0344577
2852.5 0.0367995
2853.24 0.0170405
2853.99 0.054941
2854.73 0.040265
2855.47 0.0316579
2856.21 0.0338292
2856.95 0.0261569
2857.69 0.043471
2858.43 0.0504817
2859.17 0.0419015
2859.91 0.0313444
2860.64 0.0271384
2861.38 0.0556959
2862.11 0.0659363
2862.85 0.0378623
2863.58 0.032903
2864.32 0.0372224
2865.05 0.0320687
2865.78 0.0419247
2866.52 0.0440732
2867.25 0.039542
2867.98 0.0561436
2868.71 0.0448489
2869.44 0.0401216
2870.17 0.0438826
2870.9 0.0264936
2871.62 0.0512475
2872.35 0.0463192
2873.08 0.0622767
2873.8 0.0513694
2874.53 0.0971674
2875.25 0.0797869
2875.98 0.109101
2876.7 0.109931
2877.42 0.144904
2878.15 0.134778
2878.87 0.131254
2879.59 0.113251
2880.31 0.0969645
2881.03 0.0772442
2881.75 0.0741213
2882.47 0.0531775
2883.18 0.0464996
2883.9 0.0649926
2884.62 0.0501355
2885.33 0.0491038
2886.05 0.0288729
2886.76 0.0556528
2887.48 0.0474781
2888.19 0.0703999
2888.9 0.0440561
2889.62 0.033129
2890.33 0.0320194
2891.04 0.0613715
2891.75 0.0594243
2892.46 0.0516878
2893.17 0.0330479
2893.88 0.031331
2894.58 0.0684655
2895.29 0.030767
2896 0.0606046
2896.7 0.0318875
2897.41 0.0418708
2898.11 0.0277143
2898.82 0.0316133
2899.52 0.0508759
2900.22 0.0370845
2900.93 0.059208
2901.63 0.0761023
2902.33 0.0513196
2903.03 0.034707
2903.73 0.052573
2904.43 0.0488953
2905.12 0.0581129
spectrumdark 2048
-91.3765 2894
-88.7785 2885
-86.1821 2664
-83.5876 2913
-80.9946 2432
-78.4035 2434
-75.814 2455
-73.2261 2584
-70.6401 2523
-68.0557 2429
-65.473 2413
-62.892 2558
-60.3128 2500
-57.7351 2730
-55.1592 2495
-52.585 2567
-50.0125 2441
-47.4418 2557
-44.8726 2636
-42.3052 2458
-39.7394 2631
-37.1753 2563
-34.613 2427
-32.0522 2556
-29.4932 2544
-26.9358 2495
-24.3803 2542
-21.8263 2475
-19.2739 2573
-16.7233 2569
-14.1743 2614
-11.6271 2609
-9.08144 2566
-6.53759 2518
-3.99531 2503
-1.45465 2520
1.08418 2623
3.62153 2472
6.15703 2545
8.69097 2719
11.2232 2612
13.7538 2571
16.2828 2625
18.81 2675
21.3356 2526
23.8596 2421
26.3819 2587
28.9026 2594
31.4216 2430
33.9389 2804
36.4546 2718
38.9687 2623
41.481 2688
43.9918 2468
46.5009 2545
49.0084 2565
51.5142 2582
54.0183 2640
56.5209 2524
59.0218 2570
61.521 2635
64.0186 2424
66.5146 2497
69.009 2517
71.5017 2600
73.9927 2694
76.4821 2517
78.97 2630
81.4561 2454
83.9407 2736
86.4236 2720
88.9049 2534
91.3846 2549
93.8626 2549
96.3391 2525
98.8138 2744
101.287 2681
103.758 2630
106.228 2583
108.697 2603
111.163 2392
113.628 2514
116.092 2696
118.554 2571
121.014 2783
123.473 2648
125.93 2692
128.385 2821
130.839 3154
133.291 3527
135.742 3608
138.191 4188
140.638 4626
143.084 4929
145.528 5335
147.971 5429
150.412 5748
152.851 5573
155.289 5783
157.726 6006
160.16 5954
162.593 5881
165.025 5931
167.455 5830
169.883 6053
172.31 5924
174.735 5915
177.158 6038
179.58 6088
182.001 5963
184.419 7145
186.837 7059
189.252 7381
191.666 8344
194.079 8251
196.49 8506
198.899 8759
201.307 9350
203.713 9356
206.118 9351
208.521 9296
210.922 9379
213.322 9261
215.721 9076
218.117 9290
220.513 9312
222.906 9282
225.298 9310
227.689 9389
230.078 9288
232.465 9137
234.851 9165
237.235 8953
239.618 8962
241.999 8965
244.379 9039
246.757 9238
249.134 9215
251.509 9136
253.882 8946
256.254 8974
258.625 8900
260.994 9247
263.361 9381
265.727 9360
268.091 9316
270.453 9149
272.815 9178
275.174 9031
277.532 8908
279.889 8905
282.244 8866
284.597 8837
286.949 8975
289.3 9089
291.648 9091
293.996 8989
296.342 9031
298.686 9126
301.029 9539
303.37 9007
305.71 9251
308.048 8979
310.385 8956
312.72 10146
315.053 9162
317.385 9307
319.716 9250
322.045 9196
324.373 9440
326.699 9585
329.023 9978
331.347 10413
333.668 10713
335.988 10593
338.307 9923
340.624 9568
342.939 9267
345.253 9663
347.566 9154
349.877 9023
352.186 9205
354.494 10030
356.801 9262
359.106 9189
361.409 9318
363.711 9190
366.012 9193
368.311 9049
370.609 9055
372.905 8928
375.199 9121
377.492 8966
379.784 9199
382.074 9122
384.363 8964
386.65 8810
388.935 8960
391.22 8938
393.502 9028
395.784 9664
398.063 11877
400.342 13916
402.619 14292
404.894 13552
407.168 11600
409.44 12826
411.711 21345
413.981 27685
416.248 28184
418.515 24628
420.78 15332
423.044 10578
425.306 9142
427.566 8716
429.826 8481
432.083 8400
434.34 8465
436.594 8533
438.848 8381
441.1 8118
443.35 7660
445.599 7478
447.847 7619
450.093 7715
452.337 7905
454.58 7713
456.822 7560
459.062 7366
461.301 7422
463.539 7511
465.775 7123
468.009 6932
470.242 7225
472.474 7032
474.704 7135
476.933 7146
479.16 7193
481.386 7290
483.61 7333
485.833 7263
488.055 6765
490.275 6335
492.494 6277
494.711 6743
496.927 6942
499.141 6930
501.354 7054
503.565 7230
505.776 7918
507.984 7716
510.192 6980
512.397 6617
514.602 6313
516.805 6717
519.006 6945
521.207 7305
523.405 7566
525.603 8019
527.799 9462
529.993 10382
532.186 10466
534.378 10096
536.568 8379
538.757 7376
540.944 7112
543.13 6957
545.315 6976
547.498 7266
549.68 8061
551.86 8381
554.04 8531
556.217 8464
558.393 8160
560.568 8070
562.742 7847
564.914 7791
567.084 7924
569.253 7809
571.421 7685
573.588 7790
575.753 7867
577.916 7432
580.079 7262
582.24 7062
584.399 6165
586.557 5511
588.714 5409
590.869 5253
593.023 5632
595.176 6402
597.327 6819
599.477 7271
601.625 7387
603.772 7633
605.918 7633
608.062 7567
610.205 7526
612.347 7546
614.487 7786
616.626 8238
618.763 8186
620.899 8185
623.034 8056
625.167 7824
627.299 7492
629.43 7716
631.559 7279
633.687 7921
635.813 9885
637.938 11173
640.062 11589
642.184 11307
644.305 9639
646.425 8354
648.544 8014
650.661 7699
652.776 7354
654.89 6902
657.003 6977
659.115 6916
661.225 7250
663.334 7832
665.441 8081
667.548 8175
669.652 8229
671.756 7808
673.858 7269
675.959 7066
678.058 7231
680.156 7126
682.253 7317
684.349 7839
686.443 10184
688.535 12911
690.627 13657
692.717 13202
694.806 10363
696.893 7789
698.979 7171
701.064 7150
703.147 7421
705.229 7578
707.31 8103
709.39 7323
711.468 7201
713.544 7290
715.62 7228
717.694 7239
719.767 6998
721.838 6782
723.908 6964
725.977 7428
728.045 7603
730.111 7608
732.176 7593
734.239 7501
736.302 7228
738.363 7194
740.422 7009
742.481 8462
744.538 7367
746.593 7293
748.648 7240
750.701 7403
752.753 7348
754.803 8462
756.852 7634
758.9 7692
760.946 7578
762.992 7652
765.036 7697
767.078 7849
769.12 7728
771.16 7772
773.198 7748
775.236 8179
777.272 7547
779.307 7368
781.341 7832
783.373 7589
785.404 7598
787.434 7659
789.462 7768
791.489 7760
793.515 7866
795.539 7808
797.563 7822
799.585 7817
801.605 7416
803.625 7305
805.643 7988
807.66 7937
809.675 8222
811.69 7733
813.703 7830
815.714 7672
817.725 7359
819.734 7833
821.742 7599
823.749 7820
825.754 7765
827.758 7751
829.761 7763
831.763 7534
833.763 7725
835.762 7678
837.76 7962
839.756 7774
841.751 8017
843.745 7983
845.738 8985
847.729 8036
849.72 8237
851.709 8214
853.696 8226
855.683 7726
857.668 7676
859.652 7615
861.634 7588
863.616 7869
865.596 8024
867.575 8228
869.552 8367
871.529 8604
873.504 8487
875.478 8041
877.45 7948
879.422 7827
881.392 7840
883.361 7634
885.329 7650
887.295 8893
889.26 7619
891.224 7464
893.187 7577
895.148 7713
897.108 7539
899.067 7723
901.025 7528
902.982 7662
904.937 7714
906.891 7767
908.844 7610
910.795 7661
912.746 7793
914.695 7737
916.643 7878
918.589 7717
920.535 8330
922.479 7502
924.422 7687
926.364 7457
928.304 7494
930.244 7440
932.182 7452
934.119 7543
936.054 7358
937.989 7764
939.922 7616
941.854 7596
943.785 7506
945.714 7576
947.643 7508
949.57 8753
951.496 7449
953.42 7641
955.344 7801
957.266 7576
959.187 7623
961.107 7571
963.026 7666
964.943 7458
966.86 7525
968.775 7195
970.689 7083
972.601 6689
974.513 6729
976.423 6974
978.332 7014
980.24 7334
982.147 7430
984.052 7771
985.956 8385
987.859 8845
989.761 8852
991.662 8380
993.561 7566
995.46 7255
997.357 7318
999.253 7316
1001.15 7285
1003.04 7456
1004.93 7623
1006.82 7521
1008.71 7424
1010.6 7382
1012.49 7124
1014.38 7418
1016.26 7634
1018.15 7292
1020.03 7452
1021.91 7296
1023.79 7113
1025.67 6961
1027.55 6761
1029.43 6688
1031.3 5949
1033.18 5827
1035.05 5706
1036.92 6074
1038.79 6240
1040.66 6347
1042.53 7090
1044.4 6941
1046.27 7480
1048.13 7004
1050 6978
1051.86 6980
1053.72 7062
1055.58 6977
1057.44 7041
1059.3 6973
1061.16 7124
1063.01 7176
1064.87 7194
1066.72 7587
1068.57 7067
1070.43 6968
1072.28 7141
1074.13 6961
1075.97 7207
1077.82 7055
1079.67 7005
1081.51 7222
1083.35 7474
1085.2 6990
1087.04 7014
1088.88 6975
1090.72 6972
1092.55 6997
1094.39 7088
1096.22 6969
1098.06 7234
1099.89 6925
1101.72 7083
1103.55 7004
1105.38 7131
1107.21 7160
1109.04 7039
1110.87 6938
1112.69 6780
1114.51 7143
1116.34 7249
1118.16 6878
1119.98 7097
1121.8 7661
1123.62 6950
1125.43 6939
1127.25 6888
1129.07 6879
1130.88 6934
1132.69 6929
1134.5 6983
1136.31 7001
1138.12 7003
1139.93 6932
1141.74 6999
1143.54 7222
1145.35 7134
1147.15 6919
1148.95 7005
1150.76 7062
1152.56 7580
1154.36 7069
1156.15 7199
1157.95 6779
1159.75 6865
1161.54 6937
1163.33 6818
1165.13 6771
1166.92 7007
1168.71 6791
1170.5 6907
1172.29 6864
1174.07 6835
1175.86 6930
1177.64 6782
1179.43 6759
1181.21 6808
1182.99 6794
1184.77 6836
1186.55 6708
1188.33 6659
1190.11 6441
1191.88 6392
1193.66 5773
1195.43 6008
1197.2 5615
1198.97 5835
1200.74 6236
1202.51 6347
1204.28 6493
1206.05 6634
1207.82 6722
1209.58 6641
1211.34 6502
1213.11 7570
1214.87 6741
1216.63 6713
1218.39 6718
1220.15 6720
1221.91 6600
1223.66 6730
1225.42 6575
1227.17 6633
1228.92 6581
1230.68 6612
1232.43 6645
1234.18 6535
1235.92 6547
1237.67 6515
1239.42 6692
1241.16 6491
1242.91 6647
1244.65 6727
1246.39 6507
1248.14 6721
1249.88 6802
1251.62 6662
1253.35 6467
1255.09 6631
1256.83 6515
1258.56 6553
1260.29 6445
1262.03 6662
1263.76 6346
1265.49 6582
1267.22 6623
1268.95 6290
1270.67 6648
1272.4 6477
1274.13 6561
1275.85 6382
1277.57 6449
1279.29 6417
1281.02 6462
1282.74 6326
1284.45 6293
1286.17 6422
1287.89 6338
1289.6 6697
1291.32 6296
1293.03 6519
1294.75 6304
1296.46 6392
1298.17 6319
1299.88 6216
1301.58 6382
1303.29 6457
1305 6565
1306.7 6379
1308.41 6396
1310.11 6253
1311.81 6270
1313.51 6419
1315.21 6203
1316.91 6216
1318.61 6270
1320.31 6297
1322 6346
1323.7 6403
1325.39 6376
1327.08 6316
1328.78 6490
1330.47 6353
1332.16 6586
1333.85 6373
1335.53 6397
1337.22 6385
1338.9 6550
1340.59 6365
1342.27 7022
1343.95 9903
1345.64 11883
1347.32 12656
1349 12391
1350.67 10508
1352.35 8010
1354.03 6918
1355.7 6464
1357.38 6350
1359.05 6497
1360.72 6609
1362.39 6348
1364.06 6228
1365.73 6105
1367.4 5947
1369.07 6083
1370.73 6060
1372.4 6301
1374.06 6150
1375.73 6234
1377.39 6263
1379.05 6220
1380.71 6051
1382.37 6025
1384.02 6057
1385.68 5639
1387.34 5889
1388.99 6066
1390.65 5823
1392.3 6114
1393.95 6147
1395.6 6018
1397.25 6089
1398.9 6146
1400.55 5936
1402.2 6119
1403.84 6113
1405.49 6035
1407.13 5809
1408.77 6025
1410.41 5979
1412.06 6250
1413.7 6167
1415.33 6042
1416.97 6151
1418.61 5947
1420.24 6017
1421.88 6103
1423.51 5973
1425.15 5903
1426.78 6123
1428.41 5971
1430.04 5962
1431.67 5919
1433.3 5910
1434.92 5962
1436.55 6166
1438.17 5996
1439.8 5995
1441.42 5977
1443.04 5948
1444.66 5797
1446.28 6065
1447.9 5822
1449.52 5827
1451.14 5837
1452.75 5743
1454.37 5799
1455.98 5796
1457.6 5683
1459.21 5731
1460.82 5786
1462.43 5891
1464.04 5697
1465.65 5694
1467.26 5651
1468.86 5865
1470.47 5915
1472.07 5903
1473.68 5728
1475.28 5878
1476.88 5670
1478.48 5663
1480.08 5498
1481.68 5616
1483.28 5840
1484.87 6152
1486.47 5718
1488.06 5961
1489.66 5828
1491.25 5944
1492.84 5817
1494.43 5676
1496.02 5651
1497.61 5565
1499.2 5672
1500.79 5690
1502.37 5673
1503.96 6430
1505.54 5395
1507.12 5849
1508.71 5812
1510.29 5439
1511.87 5497
1513.45 5755
1515.03 5554
1516.6 5652
1518.18 5707
1519.76 5687
1521.33 5411
1522.9 5648
1524.48 5344
1526.05 5350
1527.62 5378
1529.19 5111
1530.76 5341
1532.33 5668
1533.89 5460
1535.46 5621
1537.03 6882
1538.59 8583
1540.15 9628
1541.72 9740
1543.28 9142
1544.84 7508
1546.4 6450
1547.96 5517
1549.51 5264
1551.07 5152
1552.63 5317
1554.18 5141
1555.73 4967
1557.29 4873
1558.84 4877
1560.39 5067
1561.94 5066
1563.49 5018
1565.04 4890
1566.59 4907
1568.13 4866
1569.68 4800
1571.22 4420
1572.77 4637
1574.31 4654
1575.85 4709
1577.39 4737
1578.93 4765
1580.47 4706
1582.01 4452
1583.55 4514
1585.08 4183
1586.62 4346
1588.15 4545
1589.69 4644
1591.22 4580
1592.75 4487
1594.28 4372
1595.81 4154
1597.34 4149
1598.87 4624
1600.4 4535
1601.92 4548
1603.45 4505
1604.97 4699
1606.49 4677
1608.02 4558
1609.54 4596
1611.06 4327
1612.58 4303
1614.1 4050
1615.62 3637
1617.13 3577
1618.65 3651
1620.16 3930
1621.68 4172
1623.19 4487
1624.71 4811
1626.22 4702
1627.73 4568
1629.24 4544
1630.75 4298
1632.25 4155
1633.76 4341
1635.27 4180
1636.77 4104
1638.28 4177
1639.78 4911
1641.28 4178
1642.79 4177
1644.29 4513
1645.79 4451
1647.29 4222
1648.78 4161
1650.28 4235
1651.78 4343
1653.27 4427
1654.77 4349
1656.26 4519
1657.75 4250
1659.25 4222
1660.74 4327
1662.23 4078
1663.72 4479
1665.21 4440
1666.69 4333
1668.18 4550
1669.66 4480
1671.15 4591
1672.63 4905
1674.12 4899
1675.6 4841
1677.08 4801
1678.56 4782
1680.04 4603
1681.52 4803
1683 4642
1684.47 4606
1685.95 4585
1687.42 4690
1688.9 4782
1690.37 4781
1691.84 4736
1693.32 4666
1694.79 4396
1696.26 4637
1697.73 4778
1699.19 4737
1700.66 4637
1702.13 4489
1703.59 4367
1705.06 4140
1706.52 4074
1707.98 4139
1709.45 4310
1710.91 4398
1712.37 4521
1713.83 4096
1715.29 4035
1716.74 3857
1718.2 3920
1719.66 4050
1721.11 4244
1722.57 4270
1724.02 4339
1725.47 4157
1726.92 3924
1728.37 3828
1729.82 3916
1731.27 4123
1732.72 4006
1734.17 4117
1735.62 3949
1737.06 3968
1738.51 4123
1739.95 3989
1741.39 3979
1742.83 4026
1744.28 3957
1745.72 4034
1747.16 4059
1748.59 4083
1750.03 3809
1751.47 3883
1752.91 4321
1754.34 3990
1755.78 4094
1757.21 3994
1758.64 3967
1760.07 3818
1761.51 3956
1762.94 3952
1764.37 4461
1765.79 4103
1767.22 4396
1768.65 4260
1770.07 4461
1771.5 3934
1772.92 3811
1774.35 3949
1775.77 3988
1777.19 4435
1778.61 4332
1780.03 4578
1781.45 4530
1782.87 4204
1784.29 4014
1785.71 3800
1787.12 3632
1788.54 3880
1789.95 3709
1791.36 3629
1792.78 3585
1794.19 3589
1795.6 3536
1797.01 3814
1798.42 3970
1799.83 3934
1801.24 4082
1802.64 4093
1804.05 4209
1805.45 4408
1806.86 4120
1808.26 4325
1809.66 4078
1811.07 4043
1812.47 3781
1813.87 3709
1815.27 3478
1816.66 3520
1818.06 3682
1819.46 3807
1820.85 3851
1822.25 3989
1823.64 3888
1825.04 3893
1826.43 3855
1827.82 4050
1829.21 4191
1830.6 4368
1831.99 4215
1833.38 4074
1834.77 3909
1836.16 4014
1837.54 3724
1838.93 3759
1840.31 3565
1841.7 3383
1843.08 3465
1844.46 3716
1845.84 3799
1847.22 3887
1848.6 3918
1849.98 3850
1851.36 3972
1852.74 4067
1854.11 3782
1855.49 3872
1856.86 3969
1858.24 4009
1859.61 4150
1860.98 4113
1862.35 4168
1863.72 3994
1865.09 3906
1866.46 4148
1867.83 3919
1869.2 4096
1870.57 4053
1871.93 4184
1873.3 4248
1874.66 4359
1876.03 4228
1877.39 4246
1878.75 4364
1880.11 3984
1881.47 4086
1882.83 4097
1884.19 4021
1885.55 3877
1886.9 3797
1888.26 4080
1889.62 3930
1890.97 3983
1892.32 3970
1893.68 4171
1895.03 4189
1896.38 4077
1897.73 4062
1899.08 4120
1900.43 4174
1901.78 4014
1903.13 4219
1904.47 4008
1905.82 3881
1907.16 3912
1908.51 4044
1909.85 3830
1911.2 3857
1912.54 3883
1913.88 3801
1915.22 3636
1916.56 3865
1917.9 3939
1919.24 3830
1920.57 3923
1921.91 3808
1923.25 3795
1924.58 3791
1925.91 4025
1927.25 4139
1928.58 3877
1929.91 3943
1931.24 4082
1932.57 3918
1933.9 4018
1935.23 4083
1936.56 3818
1937.89 4133
1939.21 3933
1940.54 3741
1941.86 3702
1943.19 3848
1944.51 3767
1945.83 3986
1947.15 3842
1948.47 3928
1949.79 3876
1951.11 4054
1952.43 4233
1953.75 3932
1955.07 3857
1956.38 3673
1957.7 3752
1959.01 3759
1960.33 3529
1961.64 3442
1962.95 3651
1964.26 3652
1965.58 3379
1966.89 3442
1968.2 3680
1969.5 3634
1970.81 3324
1972.12 3298
1973.42 3264
1974.73 3409
1976.03 3341
1977.34 3424
1978.64 3560
1979.94 3432
1981.25 3375
1982.55 3363
1983.85 3221
1985.15 3273
1986.44 3204
1987.74 3107
1989.04 3267
1990.34 3167
1991.63 3255
1992.93 3469
1994.22 3078
1995.51 3243
1996.81 3050
1998.1 3282
1999.39 3110
2000.68 3149
2001.97 3207
2003.26 3217
2004.55 2964
2005.83 2948
2007.12 2911
2008.4 2790
2009.69 2895
2010.97 2844
2012.26 3109
2013.54 2871
2014.82 2848
2016.1 3247
2017.38 2929
2018.66 2887
2019.94 3031
2021.22 2797
2022.5 3051
2023.77 2903
2025.05 3023
2026.33 2722
2027.6 2915
2028.87 2878
2030.15 2755
2031.42 2698
2032.69 2756
2033.96 3131
2035.23 2804
2036.5 2871
2037.77 2752
2039.04 2848
2040.3 2722
2041.57 2940
2042.83 3135
2044.1 2948
2045.36 3056
2046.63 3220
2047.89 3092
2049.15 2826
2050.41 2744
2051.67 2868
2052.93 2820
2054.19 2848
2055.45 2956
2056.71 3000
2057.96 2925
2059.22 2912
2060.47 2941
2061.73 2953
2062.98 2957
2064.24 2862
2065.49 2813
2066.74 2902
2067.99 2746
2069.24 2758
2070.49 2753
2071.74 2947
2072.99 2845
2074.23 2949
2075.48 2840
2076.72 2802
2077.97 2706
2079.21 2803
2080.46 2771
2081.7 2741
2082.94 2840
2084.18 2804
2085.42 3030
2086.66 2847
2087.9 2959
2089.14 3224
2090.38 3012
2091.61 3289
2092.85 3410
2094.09 3314
2095.32 3360
2096.56 3308
2097.79 3295
2099.02 3117
2100.25 3141
2101.48 3069
2102.71 3165
2103.94 3123
2105.17 2927
2106.4 2938
2107.63 2926
2108.86 3014
2110.08 3118
2111.31 2974
2112.53 2912
2113.76 3037
2114.98 3033
2116.2 3797
2117.42 2957
2118.64 3085
2119.86 3050
2121.08 3086
2122.3 3199
2123.52 2895
2124.74 3075
2125.95 2988
2127.17 3044
2128.39 3043
2129.6 3298
2130.81 2982
2132.03 2977
2133.24 2928
2134.45 2906
2135.66 2813
2136.87 2921
2138.08 2891
2139.29 3072
2140.5 3032
2141.71 2954
2142.91 3179
2144.12 3190
2145.33 3080
2146.53 2801
2147.73 2828
2148.94 2850
2150.14 2860
2151.34 2753
2152.54 2914
2153.74 2832
2154.94 2869
2156.14 3321
2157.34 2943
2158.54 3093
2159.73 3368
2160.93 3110
2162.13 3191
2163.32 2807
2164.51 2991
2165.71 2789
2166.9 2737
2168.09 2823
2169.28 3058
2170.47 3058
2171.66 2850
2172.85 2966
2174.04 3835
2175.23 3065
2176.42 2984
2177.6 3100
2178.79 2892
2179.97 2871
2181.16 3058
2182.34 2997
2183.52 3244
2184.71 2968
2185.89 3003
2187.07 3076
2188.25 2870
2189.43 2876
2190.61 3101
2191.78 3026
2192.96 3012
2194.14 2901
2195.31 2904
2196.49 2918
2197.66 3105
2198.84 3217
2200.01 3259
2201.18 3304
2202.36 2996
2203.53 3135
2204.7 3142
2205.87 3215
2207.04 3124
2208.2 3001
2209.37 2903
2210.54 2677
2211.7 3063
2212.87 2776
2214.03 2918
2215.2 2947
2216.36 2671
2217.53 2903
2218.69 2988
2219.85 2985
2221.01 3074
2222.17 3111
2223.33 3047
2224.49 3253
2225.65 3218
2226.8 3301
2227.96 3183
2229.12 3022
2230.27 3162
2231.43 3016
2232.58 2930
2233.73 2955
2234.89 2780
2236.04 2769
2237.19 2725
2238.34 2764
2239.49 2831
2240.64 2845
2241.79 2739
2242.93 2934
2244.08 2801
2245.23 2955
2246.37 2838
2247.52 2946
2248.66 3117
2249.81 3075
2250.95 3142
2252.09 3393
2253.23 3057
2254.37 3159
2255.51 2935
2256.65 2993
2257.79 3014
2258.93 3242
2260.07 3130
2261.21 2839
2262.34 3006
2263.48 2805
2264.61 2849
2265.75 2908
2266.88 3002
2268.01 2873
2269.15 2874
2270.28 3074
2271.41 3084
2272.54 3080
2273.67 2886
2274.8 2969
2275.93 2901
2277.05 2924
2278.18 2769
2279.31 3036
2280.43 3054
2281.56 2967
2282.68 2956
2283.8 3026
2284.93 2869
2286.05 2913
2287.17 2979
2288.29 2928
2289.41 2881
2290.53 2938
2291.65 2950
2292.77 2931
2293.89 3021
2295 3255
2296.12 3133
2297.23 3148
2298.35 3206
2299.46 3210
2300.58 3271
2301.69 3183
2302.8 3028
2303.91 2893
2305.02 3068
2306.13 3070
2307.24 3014
2308.35 3141
2309.46 3070
2310.57 3181
2311.68 2900
2312.78 2848
2313.89 2759
2314.99 2868
2316.1 2919
2317.2 2833
2318.3 2777
2319.4 3054
2320.51 3081
2321.61 2955
2322.71 2930
2323.81 2959
2324.91 3016
2326 3087
2327.1 3022
2328.2 2924
2329.3 2939
2330.39 2973
2331.49 2886
2332.58 3024
2333.67 2900
2334.77 3031
2335.86 3066
2336.95 3053
2338.04 3065
2339.13 3169
2340.22 3022
2341.31 3129
2342.4 3006
2343.49 2990
2344.58 2919
2345.66 3028
2346.75 2979
2347.83 3193
2348.92 2828
2350 3146
2351.09 2877
2352.17 2995
2353.25 3126
2354.33 3008
2355.41 2936
2356.49 3014
2357.57 3054
2358.65 3101
2359.73 3213
2360.8 3157
2361.88 3301
2362.96 3072
2364.03 3031
2365.11 3155
2366.18 2994
2367.26 3038
2368.33 3041
2369.4 3227
2370.47 3083
2371.54 3073
2372.61 3220
2373.68 2999
2374.75 3031
2375.82 3203
2376.89 2970
2377.96 3269
2379.02 3375
2380.09 2991
2381.15 3106
2382.22 3104
2383.28 3094
2384.34 3163
2385.41 3006
2386.47 3208
2387.53 3149
2388.59 3196
2389.65 3111
2390.71 3369
2391.77 2872
2392.83 3054
2393.88 3044
2394.94 2966
2396 3274
2397.05 3156
2398.11 3136
2399.16 3005
2400.21 3340
2401.27 3108
2402.32 3149
2403.37 3209
2404.42 3454
2405.47 3409
2406.52 3449
2407.57 3503
2408.62 3290
2409.67 3380
2410.71 3239
2411.76 3271
2412.81 3259
2413.85 3241
2414.9 3388
2415.94 3383
2416.98 3495
2418.03 3379
2419.07 3190
2420.11 3236
2421.15 3330
2422.19 3351
2423.23 3143
2424.27 3613
2425.31 3397
2426.35 3436
2427.38 4702
2428.42 3459
2429.45 3266
2430.49 3315
2431.52 3145
2432.56 3388
2433.59 3251
2434.62 3308
2435.65 3051
2436.69 3275
2437.72 3332
2438.75 3263
2439.78 3261
2440.8 3187
2441.83 3279
2442.86 3209
2443.89 3447
2444.91 3538
2445.94 3342
2446.96 3430
2447.99 3258
2449.01 3238
2450.03 3216
2451.06 3416
2452.08 3237
2453.1 3393
2454.12 3352
2455.14 3588
2456.16 3153
2457.18 3462
2458.2 3175
2459.21 3145
2460.23 3073
2461.25 3063
2462.26 3181
2463.28 3094
2464.29 3099
2465.3 3259
2466.32 3202
2467.33 3203
2468.34 3285
2469.35 3050
2470.36 3126
2471.37 3180
2472.38 3051
2473.39 3087
2474.4 3109
2475.41 3048
2476.41 3088
2477.42 3163
2478.42 3174
2479.43 3103
2480.43 3160
2481.44 3068
2482.44 3250
2483.44 3140
2484.44 3326
2485.44 3448
2486.44 3372
2487.44 3288
2488.44 3541
2489.44 3384
2490.44 3288
2491.44 3296
2492.43 3144
2493.43 3326
2494.42 3393
2495.42 3073
2496.41 3189
2497.41 2985
2498.4 3113
2499.39 3323
2500.38 2966
2501.38 2986
2502.37 3211
2503.36 3179
2504.34 3266
2505.33 3092
2506.32 3448
2507.31 3347
2508.3 3355
2509.28 3297
2510.27 3216
2511.25 3136
2512.24 3074
2513.22 3530
2514.2 3195
2515.19 3097
2516.17 3041
2517.15 3172
2518.13 3140
2519.11 3191
2520.09 3090
2521.07 3342
2522.04 3229
2523.02 3376
2524 3086
2524.97 3124
2525.95 3065
2526.92 3186
2527.9 3140
2528.87 3144
2529.85 3489
2530.82 3499
2531.79 2984
2532.76 3045
2533.73 3045
2534.7 3139
2535.67 3406
2536.64 3168
2537.61 3202
2538.58 3146
2539.54 3142
2540.51 3056
2541.47 3269
2542.44 3045
2543.4 3472
2544.37 3180
2545.33 3164
2546.29 3146
2547.26 3211
2548.22 3193
2549.18 3309
2550.14 3445
2551.1 3120
2552.06 3310
2553.01 3114
2553.97 3614
2554.93 3294
2555.89 3137
2556.84 3120
2557.8 3208
2558.75 3405
2559.71 3021
2560.66 3211
2561.61 3320
2562.56 3124
2563.51 3294
2564.47 3271
2565.42 3166
2566.37 3064
2567.31 3216
2568.26 3057
2569.21 3483
2570.16 3417
2571.11 3129
2572.05 3261
2573 4171
2573.94 3183
2574.89 3274
2575.83 3558
2576.77 3314
2577.71 3211
2578.66 3347
2579.6 3384
2580.54 3204
2581.48 3180
2582.42 3286
2583.36 3246
2584.29 3108
2585.23 3141
2586.17 3157
2587.1 3265
2588.04 3125
2588.97 3176
2589.91 3054
2590.84 3158
2591.77 3122
2592.71 3406
2593.64 3164
2594.57 3160
2595.5 3356
2596.43 3112
2597.36 3128
2598.29 3293
2599.22 3337
2600.15 3369
2601.07 3105
2602 3185
2602.93 3994
2603.85 3310
2604.77 3186
2605.7 3203
2606.62 3247
2607.54 3189
2608.47 3245
2609.39 3301
2610.31 3083
2611.23 3159
2612.15 3102
2613.07 3222
2613.99 3286
2614.91 3335
2615.82 3279
2616.74 3277
2617.66 3148
2618.57 3072
2619.49 3282
2620.4 3183
2621.31 3226
2622.23 3244
2623.14 3113
2624.05 3236
2624.96 3222
2625.87 3172
2626.78 3157
2627.69 3143
2628.6 3040
2629.51 3213
2630.42 3321
2631.32 3098
2632.23 3411
2633.13 3281
2634.04 3258
2634.94 3258
2635.85 3276
2636.75 3195
2637.65 3154
2638.56 3120
2639.46 3397
2640.36 3561
2641.26 3243
2642.16 3396
2643.06 3237
2643.96 3346
2644.85 3287
2645.75 3227
2646.65 3313
2647.54 3326
2648.44 3212
2649.33 3279
2650.23 3290
2651.12 3159
2652.01 3361
2652.91 4076
2653.8 3186
2654.69 3341
2655.58 3222
2656.47 3267
2657.36 3300
2658.25 3265
2659.14 3183
2660.02 3105
2660.91 3258
2661.8 3385
2662.68 3147
2663.57 3130
2664.45 3302
2665.34 3109
2666.22 3083
2667.1 3582
2667.98 3101
2668.87 3249
2669.75 3171
2670.63 3018
2671.51 3089
2672.39 3182
2673.26 3138
2674.14 3067
2675.02 3221
2675.9 3103
2676.77 3161
2677.65 3100
2678.52 3087
2679.4 3082
2680.27 3186
2681.14 3283
2682.01 3312
2682.89 3051
2683.76 3201
2684.63 3476
2685.5 3182
2686.37 3320
2687.24 3106
2688.1 3142
2688.97 3197
2689.84 3168
2690.7 3108
2691.57 3201
2692.43 3161
2693.3 3166
2694.16 3052
2695.03 3068
2695.89 3010
2696.75 3162
2697.61 3100
2698.47 3080
2699.33 3037
2700.19 3088
2701.05 3381
2701.91 3108
2702.77 3168
2703.63 2994
2704.48 3148
2705.34 3134
2706.19 3109
2707.05 3049
2707.9 3149
2708.76 3016
2709.61 3140
2710.46 3143
2711.31 3047
2712.16 3023
2713.02 3145
2713.86 3217
2714.71 2994
2715.56 3350
2716.41 3186
2717.26 2959
2718.11 3291
2718.95 2945
2719.8 3080
2720.64 3149
2721.49 3146
2722.33 3106
2723.17 2914
2724.02 3161
2724.86 3415
2725.7 3077
2726.54 3156
2727.38 3185
2728.22 3103
2729.06 3022
2729.9 3086
2730.74 2928
2731.57 3010
2732.41 3126
2733.25 3200
2734.08 3216
2734.92 3112
2735.75 3117
2736.58 3001
2737.42 3085
2738.25 2961
2739.08 3097
2739.91 3503
2740.74 2898
2741.57 3035
2742.4 2986
2743.23 3183
2744.06 3158
2744.89 3124
2745.71 3327
2746.54 3108
2747.37 3139
2748.19 3393
2749.02 3212
2749.84 3274
2750.66 3004
2751.49 3099
2752.31 3119
2753.13 3069
2753.95 3000
2754.77 3020
2755.59 3050
2756.41 3106
2757.23 3022
2758.04 3108
2758.86 2908
2759.68 3096
2760.49 3100
2761.31 2985
2762.12 3360
2762.94 3697
2763.75 3037
2764.57 3245
2765.38 2902
2766.19 3065
2767 3082
2767.81 2986
2768.62 3191
2769.43 3273
2770.24 2995
2771.05 3144
2771.85 3125
2772.66 2947
2773.47 3194
2774.27 2966
2775.08 2892
2775.88 3103
2776.69 3127
2777.49 3021
2778.29 2916
2779.09 3124
2779.9 3058
2780.7 2979
2781.5 3222
2782.3 2945
2783.1 3157
2783.89 3020
2784.69 3035
2785.49 3088
2786.29 2886
2787.08 2966
2787.88 3025
2788.67 2938
2789.47 2944
2790.26 3153
2791.05 3141
2791.84 2926
2792.64 2893
2793.43 2840
2794.22 2935
2795.01 3034
2795.8 2920
2796.58 2919
2797.37 2980
2798.16 3051
2798.95 2940
2799.73 3125
2800.52 3099
2801.3 2973
2802.09 3071
2802.87 2889
2803.65 2926
2804.44 3119
2805.22 2970
2806 2931
2806.78 2902
2807.56 2976
2808.34 3134
2809.12 3089
2809.9 3010
2810.68 2856
2811.45 3020
2812.23 3104
2813 2911
2813.78 2920
2814.55 2813
2815.33 2936
2816.1 3040
2816.87 3082
2817.65 2872
2818.42 2843
2819.19 2936
2819.96 3032
2820.73 2853
2821.5 3104
2822.27 2986
2823.03 2984
2823.8 3160
2824.57 2959
2825.33 3016
2826.1 3001
2826.86 2832
2827.63 2917
2828.39 2967
2829.15 2873
2829.92 2882
2830.68 2904
2831.44 2946
2832.2 2894
2832.96 3243
2833.72 2952
2834.48 3017
2835.24 2864
2835.99 2889
2836.75 2998
2837.51 2952
2838.26 2902
2839.02 3001
2839.77 2946
2840.52 3013
2841.28 2764
2842.03 2881
2842.78 2750
2843.53 3020
2844.28 2898
2845.03 2880
2845.78 3223
2846.53 3036
2847.28 3152
2848.03 2925
2848.78 2965
2849.52 2819
2850.27 3208
2851.01 2916
2851.76 2943
2852.5 3071
2853.24 3014
2853.99 2872
2854.73 2901
2855.47 2911
2856.21 2991
2856.95 3104
2857.69 2993
2858.43 2878
2859.17 3250
2859.91 2998
2860.64 2952
2861.38 3095
2862.11 2829
2862.85 3101
2863.58 3016
2864.32 3169
2865.05 2902
2865.78 3019
2866.52 2983
2867.25 3068
2867.98 3083
2868.71 2956
2869.44 2995
2870.17 3171
2870.9 3352
2871.62 3058
2872.35 3380
2873.08 3706
2873.8 4454
2874.53 5404
2875.25 5513
2875.98 5952
2876.7 6725
2877.42 6644
2878.15 6793
2878.87 6322
2879.59 5928
2880.31 5831
2881.03 4892
2881.75 4531
2882.47 4321
2883.18 3865
2883.9 3723
2884.62 3505
2885.33 3570
2886.05 3399
2886.76 3306
2887.48 3394
2888.19 3211
2888.9 3241
2889.62 2963
2890.33 2980
2891.04 3076
2891.75 3114
2892.46 3163
2893.17 3270
2893.88 2993
2894.58 3029
2895.29 2921
2896 3023
2896.7 3024
2897.41 2922
2898.11 2955
2898.82 2975
2899.52 2882
2900.22 2985
2900.93 3025
2901.63 2974
2902.33 2923
2903.03 3864
2903.73 2898
2904.43 2894
2905.12 2885
