scanname 扫描052
timestamp 8/4/2000 21:04
ccdbias 1701.33
ccdgain 2.46132
sigmaread 11.4449
laserwavenum -0.280768
wavenumcorrection -0.553673
scancount 1
totalexposurems 3000
singleexposurems 3000
measurementstate Unknown
scanmode Identification
snr 8.17977 8.17977 8.17977
replacelist 0
peaks 47
278.479 0.572061 0 0.67156 0.000134619
296.45 0.552118 0 0.421219 2.02274e-05
308.146 0.549381 0 0.418212 4.88745e-05
351.188 0.546243 0 0.464776 7.51696e-05
359.684 0.548594 0 0.373858 3.38934e-05
388.993 0.567677 0 1.98012 0.000412122
394.748 0.548315 0 3.12452 0.000284679
404.476 0.534337 0 8.42036 0.00133515
427.783 0.576236 0 6.95198 0.00112376
438.47 0.595374 0 6.27082 0.000284616
447.274 0.601804 0 1.37428 0.000333407
459.945 0.606287 0 0.439788 5.36794e-05
474.37 0.632921 0 0.624274 0.000143169
483.118 0.632305 0 0.666716 3.66936e-05
492.96 0.641831 0 0.552641 0.000137683
501.265 0.632587 0 0.45279 3.09935e-05
515.252 0.6311 0 0.707538 0.000157947
542.06 0.630255 0 0.67897 0.000256415
558.9 0.623323 0 0.160017 1.66822e-05
596.418 0.670664 0 0.939402 0.000312136
615.051 0.648535 0 0.746115 3.61944e-05
626.446 0.653542 0 1.12857 0.00036211
710.977 0.589329 0 0.365666 9.0698e-05
763.233 0.580702 0 0.0712745 4.31072e-05
809.051 0.616366 0 1.95313 0.000580518
842.099 0.598894 0 1.62877 0.00053017
896.521 0.554878 0 0.190431 5.8555e-05
938.074 0.540842 0 0.125241 5.51261e-05
974.852 0.547887 0 0.263177 0.000158527
1001.75 0.664539 0 9.49832 0.00246807
1033.27 0.574877 0 0.972196 0.000454075
1063.49 0.556827 0 0.594858 0.000237343
1086.64 0.595176 0 4.24511 0.00132816
1154.03 0.561132 0 1.74772 0.000728252
1213.41 0.506953 0 0.199317 5.59784e-05
1300.84 0.550519 0 0.646326 0.000308811
1329.64 0.545319 0 0.738629 0.000553044
1359.95 0.496775 0 0.136238 0.000201252
1440.95 0.608111 0 1.50758 0.000913566
1455.91 0.622197 0 0.905212 0.000718237
1526.49 0.416671 0 0.123072 9.79783e-05
1550.95 0.41167 0 0.284587 0.000183967
1583.24 0.421065 0 0.229152 0.000267256
1602.63 0.443391 0 0.687827 0.000666503
1828.26 0.336626 0 0.0966498 6.21925e-05
2851.41 0.843122 0 0.263858 0.00366604
2883.79 1.01234 0 0.22349 0.00337443
finalresult No match found 1A11883	2.88859e-16
spectrum 2048
-91.5031 0.116003
-88.9051 0.112438
-86.3087 0.569562
-83.7142 0.772038
-81.1212 0.749232
-78.5301 0.721938
-75.9406 0.830051
-73.3527 0.82106
-70.7667 0.765994
-68.1823 0.877261
-65.5996 0.948469
-63.0186 0.932401
-60.4394 1.01813
-57.8617 1.00914
-55.2858 1.03339
-52.7116 1.14637
-50.1391 1.14458
-47.5684 1.15461
-44.9992 1.21208
-42.4318 1.20934
-39.866 1.27714
-37.3019 1.31852
-34.7396 1.35791
-32.1788 1.39467
-29.6198 1.45378
-27.0624 1.42663
-24.5069 1.45591
-21.9529 1.4839
-19.4005 1.55962
-16.8499 1.63503
-14.3009 1.73095
-11.7537 1.88629
-9.20809 1.14259
-6.66424 0.425844
-4.12196 0.162048
-1.5813 0.131915
0.957536 0.132381
3.49488 0.1332
6.03038 0.142003
8.56432 0.394363
11.0966 0.989191
13.6272 1.14828
16.1562 1.33378
18.6834 1.4386
21.209 1.37795
23.733 1.33798
26.2553 1.34221
28.776 1.35341
31.295 1.37784
33.8123 1.39596
36.328 1.42896
38.8421 1.41251
41.3544 1.36938
43.8652 1.4191
46.3743 1.41667
48.8818 1.43112
51.3876 1.45742
53.8917 1.50686
56.3943 1.52146
58.8952 1.4652
61.3944 1.52255
63.892 1.50028
66.388 1.39482
68.8824 1.37288
71.3751 1.34728
73.8661 1.26317
76.3555 1.17504
78.8434 1.10086
81.3295 0.986612
83.8141 1.01106
86.297 0.929655
88.7783 0.831048
91.258 0.807025
93.736 0.786999
96.2125 0.855263
98.6872 0.699782
101.161 0.770543
103.632 0.79652
106.102 0.736535
108.571 0.689904
111.037 0.736509
113.502 0.68842
115.966 0.755985
118.428 0.739914
120.888 0.75946
123.347 0.791786
125.804 0.770643
128.259 0.762164
130.713 0.792225
133.165 0.78419
135.616 0.766535
138.065 0.78032
140.512 0.780804
142.958 0.771373
145.402 0.764729
147.845 0.7445
150.286 0.747194
152.725 0.734908
155.163 0.737999
157.6 0.731815
160.034 0.735045
162.467 0.728543
164.899 0.730702
167.329 0.731904
169.757 0.735801
172.184 0.73565
174.609 0.728068
177.032 0.730108
179.454 0.731464
181.875 0.734056
184.293 0.737419
186.711 0.7431
189.126 0.739919
191.54 0.73446
193.953 0.691322
196.364 0.640005
198.773 0.60564
201.181 0.582943
203.587 0.569173
205.992 0.564025
208.395 0.561307
210.796 0.559585
213.196 0.561947
215.595 0.561167
217.991 0.559306
220.387 0.553538
222.78 0.551197
225.172 0.548788
227.563 0.548679
229.952 0.548431
232.339 0.547312
234.725 0.553939
237.109 0.558468
239.492 0.558669
241.873 0.560546
244.253 0.560479
246.631 0.560387
249.008 0.5639
251.383 0.570012
253.756 0.571547
256.128 0.570032
258.499 0.572955
260.868 0.569542
263.235 0.565049
265.601 0.56788
267.965 0.566114
270.327 0.564275
272.689 0.568105
275.048 0.567841
277.406 0.570634
279.763 0.571478
282.118 0.573542
284.471 0.567541
286.823 0.562684
289.174 0.555643
291.522 0.554568
293.87 0.552819
296.216 0.553458
298.56 0.55034
300.903 0.543418
303.244 0.552144
305.584 0.547622
307.922 0.551072
310.259 0.554785
312.594 0.539265
314.927 0.550931
317.259 0.545208
319.59 0.541621
321.919 0.539449
324.247 0.537383
326.573 0.532339
328.897 0.529184
331.221 0.528013
333.542 0.523913
335.862 0.526172
338.181 0.534563
340.498 0.539706
342.813 0.54078
345.127 0.538074
347.44 0.547079
349.751 0.548662
352.06 0.55048
354.368 0.538116
356.675 0.546436
358.98 0.54853
361.283 0.545192
363.585 0.549589
365.886 0.550665
368.185 0.555595
370.483 0.557761
372.779 0.556522
375.073 0.556209
377.366 0.556585
379.658 0.555463
381.948 0.559628
384.237 0.564285
386.524 0.566617
388.809 0.564319
391.094 0.56589
393.376 0.562934
395.658 0.551322
397.937 0.529187
400.216 0.518045
402.493 0.516141
404.768 0.526532
407.042 0.540992
409.314 0.513236
411.585 0.448077
413.855 0.42277
416.122 0.426301
418.389 0.465867
420.654 0.530368
422.918 0.550644
425.18 0.566672
427.44 0.570578
429.7 0.575619
431.957 0.575247
434.214 0.5717
436.468 0.574139
438.722 0.577777
440.974 0.586705
443.224 0.5979
445.473 0.60239
447.721 0.600652
449.967 0.597481
452.211 0.594945
454.454 0.601323
456.696 0.606354
458.936 0.60855
461.175 0.608045
463.413 0.612723
465.649 0.623868
467.883 0.632712
470.116 0.628294
472.348 0.629038
474.578 0.632774
476.807 0.631088
479.034 0.631876
481.26 0.625871
483.484 0.626086
485.707 0.638332
487.929 0.640288
490.149 0.640244
492.368 0.641576
494.585 0.639882
496.801 0.637764
499.015 0.638122
501.228 0.633102
503.439 0.627829
505.65 0.616311
507.858 0.625064
510.066 0.629693
512.271 0.629604
514.476 0.632556
516.679 0.628873
518.88 0.627566
521.081 0.627795
523.279 0.620553
525.477 0.61648
527.673 0.604403
529.867 0.598009
532.06 0.607136
534.252 0.608983
536.442 0.622371
538.631 0.633005
540.818 0.629843
543.004 0.624981
545.189 0.629948
547.372 0.629049
549.554 0.614313
551.734 0.607351
553.914 0.604696
556.091 0.613374
558.267 0.618295
560.442 0.62383
562.616 0.627972
564.788 0.628081
566.958 0.629934
569.127 0.629911
571.295 0.633726
573.462 0.634924
575.627 0.636793
577.79 0.640373
579.953 0.646224
582.114 0.643663
584.273 0.64579
586.431 0.648443
588.588 0.655159
590.743 0.66089
592.897 0.665826
595.05 0.6698
597.201 0.673794
599.351 0.665151
601.499 0.66257
603.646 0.654872
605.792 0.657021
607.936 0.663528
610.079 0.657961
612.221 0.658224
614.361 0.650056
616.5 0.642523
618.637 0.642577
620.773 0.642631
622.908 0.646711
625.041 0.654013
627.173 0.655634
629.304 0.648411
631.433 0.644311
633.561 0.635702
635.687 0.628359
637.812 0.62428
639.936 0.617386
642.058 0.615967
644.179 0.61293
646.299 0.615016
648.418 0.607902
650.535 0.606042
652.65 0.603269
654.764 0.598979
656.877 0.598153
658.989 0.594068
661.099 0.594476
663.208 0.59335
665.315 0.594177
667.422 0.591552
669.526 0.58814
671.63 0.589413
673.732 0.589144
675.833 0.590255
677.932 0.588648
680.03 0.587721
682.127 0.588485
684.223 0.586776
686.317 0.58146
688.409 0.582239
690.501 0.573779
692.591 0.576072
694.68 0.581744
696.767 0.57937
698.853 0.584219
700.938 0.580875
703.021 0.5846
705.103 0.586053
707.184 0.584765
709.264 0.588614
711.342 0.589638
713.418 0.591017
715.494 0.585027
717.568 0.587914
719.641 0.584984
721.712 0.575945
723.782 0.577075
725.851 0.574802
727.919 0.577845
729.985 0.576274
732.05 0.577043
734.113 0.574327
736.176 0.571709
738.237 0.574547
740.296 0.575087
742.355 0.576669
744.412 0.574403
746.467 0.577793
748.522 0.575573
750.575 0.578662
752.627 0.57836
754.677 0.578033
756.726 0.578197
758.774 0.577249
760.82 0.575272
762.866 0.582452
764.91 0.583735
766.952 0.577209
768.994 0.580077
771.034 0.582413
773.072 0.580038
775.11 0.570804
777.146 0.570975
779.181 0.574968
781.215 0.571129
783.247 0.570642
785.278 0.572811
787.308 0.573331
789.336 0.576508
791.363 0.582882
793.389 0.586819
795.413 0.575805
797.437 0.587462
799.459 0.588159
801.479 0.590089
803.499 0.600635
805.517 0.604942
807.534 0.6158
809.549 0.617408
811.564 0.613809
813.577 0.603512
815.588 0.591469
817.599 0.57941
819.608 0.582836
821.616 0.57591
823.623 0.57639
825.628 0.578534
827.632 0.572847
829.635 0.574217
831.637 0.574769
833.637 0.573352
835.636 0.581726
837.634 0.588035
839.63 0.59552
841.625 0.598999
843.619 0.599393
845.612 0.591595
847.603 0.580723
849.594 0.570464
851.583 0.572667
853.57 0.568686
855.557 0.566254
857.542 0.568266
859.526 0.564644
861.508 0.562001
863.49 0.565381
865.47 0.559762
867.449 0.562903
869.426 0.55161
871.403 0.556948
873.378 0.558286
875.352 0.553211
877.324 0.552204
879.296 0.548863
881.266 0.551335
883.235 0.547284
885.203 0.554841
887.169 0.548175
889.134 0.553589
891.098 0.553477
893.061 0.554164
895.022 0.554138
896.982 0.553423
898.941 0.557183
900.899 0.553899
902.856 0.552803
904.811 0.548336
906.765 0.546216
908.718 0.550889
910.669 0.541819
912.62 0.538651
914.569 0.539496
916.517 0.540043
918.463 0.539888
920.409 0.539466
922.353 0.536366
924.296 0.538296
926.238 0.533105
928.178 0.537447
930.118 0.537346
932.056 0.53567
933.993 0.539172
935.928 0.540964
937.863 0.541821
939.796 0.542289
941.728 0.537244
943.659 0.540917
945.588 0.536902
947.517 0.539026
949.444 0.532166
951.37 0.530408
953.294 0.532362
955.218 0.533826
957.14 0.534162
959.061 0.534097
960.981 0.533006
962.9 0.538933
964.817 0.537377
966.734 0.543899
968.649 0.539162
970.563 0.545973
972.475 0.550122
974.387 0.548755
976.297 0.549898
978.206 0.540126
980.114 0.543868
982.021 0.538244
983.926 0.53719
985.83 0.53682
987.733 0.537734
989.635 0.540779
991.536 0.544664
993.435 0.554134
995.334 0.570504
997.231 0.604239
999.127 0.640406
1001.02 0.670327
1002.91 0.667863
1004.8 0.639449
1006.69 0.601998
1008.58 0.570048
1010.47 0.544477
1012.36 0.536738
1014.25 0.533414
1016.13 0.531216
1018.02 0.532931
1019.9 0.526625
1021.78 0.537123
1023.66 0.545157
1025.54 0.550912
1027.42 0.560634
1029.3 0.566238
1031.17 0.571053
1033.05 0.578501
1034.92 0.569704
1036.79 0.573395
1038.66 0.559845
1040.53 0.55955
1042.4 0.549078
1044.27 0.547451
1046.14 0.54495
1048 0.541525
1049.87 0.540658
1051.73 0.54076
1053.59 0.542167
1055.45 0.543681
1057.31 0.544667
1059.17 0.55096
1061.03 0.558959
1062.88 0.555785
1064.74 0.554495
1066.59 0.556457
1068.44 0.55204
1070.3 0.544571
1072.15 0.548472
1074 0.548271
1075.84 0.546972
1077.69 0.546344
1079.54 0.548852
1081.38 0.55826
1083.22 0.578322
1085.07 0.59486
1086.91 0.594397
1088.75 0.589747
1090.59 0.571472
1092.42 0.55251
1094.26 0.540098
1096.09 0.53002
1097.93 0.527049
1099.76 0.524622
1101.59 0.526777
1103.42 0.521426
1105.25 0.521657
1107.08 0.515057
1108.91 0.520713
1110.74 0.510824
1112.56 0.510797
1114.38 0.505957
1116.21 0.512211
1118.03 0.510273
1119.85 0.512919
1121.67 0.503634
1123.49 0.508853
1125.3 0.513884
1127.12 0.512952
1128.94 0.515859
1130.75 0.511487
1132.56 0.510087
1134.37 0.512226
1136.18 0.513089
1137.99 0.513788
1139.8 0.514128
1141.61 0.522258
1143.41 0.520499
1145.22 0.52571
1147.02 0.535321
1148.82 0.541908
1150.63 0.552671
1152.43 0.556446
1154.23 0.564405
1156.02 0.558416
1157.82 0.549011
1159.62 0.538876
1161.41 0.537803
1163.2 0.528065
1165 0.529881
1166.79 0.523319
1168.58 0.524679
1170.37 0.525034
1172.16 0.523113
1173.94 0.518259
1175.73 0.520942
1177.51 0.516272
1179.3 0.520581
1181.08 0.524222
1182.86 0.519444
1184.64 0.515983
1186.42 0.519309
1188.2 0.513169
1189.98 0.510063
1191.75 0.509815
1193.53 0.510357
1195.3 0.5058
1197.07 0.510667
1198.84 0.510869
1200.61 0.506226
1202.38 0.506616
1204.15 0.50826
1205.92 0.510787
1207.69 0.508453
1209.45 0.506262
1211.21 0.504776
1212.98 0.502859
1214.74 0.502715
1216.5 0.508901
1218.26 0.508189
1220.02 0.506409
1221.78 0.503033
1223.53 0.503811
1225.29 0.497958
1227.04 0.495674
1228.79 0.495171
1230.55 0.485512
1232.3 0.489488
1234.05 0.490611
1235.79 0.488695
1237.54 0.48332
1239.29 0.487525
1241.03 0.486602
1242.78 0.483082
1244.52 0.489252
1246.26 0.488459
1248.01 0.483673
1249.75 0.487347
1251.49 0.486951
1253.22 0.490074
1254.96 0.48778
1256.7 0.490184
1258.43 0.48555
1260.16 0.492515
1261.9 0.488337
1263.63 0.487605
1265.36 0.491029
1267.09 0.488781
1268.82 0.49421
1270.54 0.496477
1272.27 0.495644
1274 0.492333
1275.72 0.496146
1277.44 0.502594
1279.16 0.497827
1280.89 0.50126
1282.61 0.500944
1284.32 0.501617
1286.04 0.505146
1287.76 0.509521
1289.47 0.515625
1291.19 0.517681
1292.9 0.536251
1294.62 0.537299
1296.33 0.54812
1298.04 0.547427
1299.75 0.549616
1301.45 0.544341
1303.16 0.550761
1304.87 0.547267
1306.57 0.547424
1308.28 0.54127
1309.98 0.542675
1311.68 0.538426
1313.38 0.528453
1315.08 0.532445
1316.78 0.532786
1318.48 0.529053
1320.18 0.526541
1321.87 0.52296
1323.57 0.528062
1325.26 0.535403
1326.95 0.542765
1328.65 0.538963
1330.34 0.548246
1332.03 0.542655
1333.72 0.537429
1335.4 0.525623
1337.09 0.517694
1338.77 0.506402
1340.46 0.507713
1342.14 0.495599
1343.82 0.490205
1345.51 0.482782
1347.19 0.481885
1348.87 0.478288
1350.54 0.484315
1352.22 0.49235
1353.9 0.490943
1355.57 0.491348
1357.25 0.49201
1358.92 0.499114
1360.59 0.500065
1362.26 0.495752
1363.93 0.487458
1365.6 0.494778
1367.27 0.485037
1368.94 0.484501
1370.6 0.475543
1372.27 0.480265
1373.93 0.474266
1375.6 0.471454
1377.26 0.46677
1378.92 0.47058
1380.58 0.467494
1382.24 0.467755
1383.89 0.458324
1385.55 0.459252
1387.21 0.461864
1388.86 0.449706
1390.52 0.450126
1392.17 0.4529
1393.82 0.447631
1395.47 0.446473
1397.12 0.451034
1398.77 0.448242
1400.42 0.447798
1402.07 0.449894
1403.71 0.450009
1405.36 0.444059
1407 0.446443
1408.64 0.448124
1410.28 0.448019
1411.93 0.451239
1413.57 0.451131
1415.2 0.454971
1416.84 0.455569
1418.48 0.455436
1420.11 0.451083
1421.75 0.461826
1423.38 0.462156
1425.02 0.466216
1426.65 0.4807
1428.28 0.486162
1429.91 0.504748
1431.54 0.527321
1433.17 0.55126
1434.79 0.576322
1436.42 0.58929
1438.04 0.600669
1439.67 0.603619
1441.29 0.609747
1442.91 0.606962
1444.53 0.614651
1446.15 0.617121
1447.77 0.613102
1449.39 0.620099
1451.01 0.619707
1452.62 0.622373
1454.24 0.620637
1455.85 0.622936
1457.47 0.619351
1459.08 0.611076
1460.69 0.609996
1462.3 0.593965
1463.91 0.574524
1465.52 0.5649
1467.13 0.54466
1468.73 0.525882
1470.34 0.508275
1471.94 0.486613
1473.55 0.485218
1475.15 0.471645
1476.75 0.464446
1478.35 0.454514
1479.95 0.451444
1481.55 0.446936
1483.15 0.451349
1484.74 0.441872
1486.34 0.440531
1487.93 0.44014
1489.53 0.436323
1491.12 0.435283
1492.71 0.43153
1494.3 0.432267
1495.89 0.431788
1497.48 0.431386
1499.07 0.428146
1500.66 0.429427
1502.24 0.428882
1503.83 0.420676
1505.41 0.420831
1506.99 0.428688
1508.58 0.420067
1510.16 0.421706
1511.74 0.421484
1513.32 0.422282
1514.9 0.424787
1516.47 0.417066
1518.05 0.420718
1519.63 0.422167
1521.2 0.41523
1522.77 0.417368
1524.35 0.412074
1525.92 0.420037
1527.49 0.409291
1529.06 0.415827
1530.63 0.419618
1532.2 0.413058
1533.76 0.411507
1535.33 0.411265
1536.9 0.407503
1538.46 0.399542
1540.02 0.398738
1541.59 0.399483
1543.15 0.393955
1544.71 0.404858
1546.27 0.408245
1547.83 0.411702
1549.38 0.411003
1550.94 0.4158
1552.5 0.407177
1554.05 0.409059
1555.6 0.407897
1557.16 0.405191
1558.71 0.408867
1560.26 0.408843
1561.81 0.403509
1563.36 0.409242
1564.91 0.40684
1566.46 0.408562
1568 0.407702
1569.55 0.409704
1571.09 0.407412
1572.64 0.406112
1574.18 0.407685
1575.72 0.407146
1577.26 0.41104
1578.8 0.410948
1580.34 0.423268
1581.88 0.421224
1583.42 0.42264
1584.95 0.416855
1586.49 0.418497
1588.02 0.415581
1589.56 0.412818
1591.09 0.411571
1592.62 0.416983
1594.15 0.418451
1595.68 0.42102
1597.21 0.423442
1598.74 0.434451
1600.27 0.439645
1601.79 0.441011
1603.32 0.443138
1604.84 0.442382
1606.36 0.432975
1607.89 0.42768
1609.41 0.418145
1610.93 0.412965
1612.45 0.405624
1613.97 0.408911
1615.49 0.397951
1617 0.401148
1618.52 0.398108
1620.03 0.400826
1621.55 0.399231
1623.06 0.394589
1624.58 0.395113
1626.09 0.389841
1627.6 0.39227
1629.11 0.394496
1630.62 0.392115
1632.12 0.387962
1633.63 0.384693
1635.14 0.380981
1636.64 0.38769
1638.15 0.383234
1639.65 0.382844
1641.15 0.377953
1642.66 0.384607
1644.16 0.38469
1645.66 0.383292
1647.16 0.392769
1648.65 0.383095
1650.15 0.375964
1651.65 0.382939
1653.14 0.3784
1654.64 0.379322
1656.13 0.380765
1657.62 0.379528
1659.12 0.376951
1660.61 0.374712
1662.1 0.375937
1663.59 0.376064
1665.08 0.373024
1666.56 0.371257
1668.05 0.373037
1669.53 0.374261
1671.02 0.375459
1672.5 0.374359
1673.99 0.370474
1675.47 0.361209
1676.95 0.372787
1678.43 0.368257
1679.91 0.366654
1681.39 0.364327
1682.87 0.369142
1684.34 0.37065
1685.82 0.371365
1687.29 0.356138
1688.77 0.364349
1690.24 0.358763
1691.71 0.365039
1693.19 0.362538
1694.66 0.36327
1696.13 0.363631
1697.6 0.358431
1699.06 0.364986
1700.53 0.3632
1702 0.366566
1703.46 0.360554
1704.93 0.370246
1706.39 0.361938
1707.85 0.364882
1709.32 0.361111
1710.78 0.361766
1712.24 0.365762
1713.7 0.355188
1715.16 0.364232
1716.61 0.36379
1718.07 0.354946
1719.53 0.363854
1720.98 0.360328
1722.44 0.357507
1723.89 0.358664
1725.34 0.355452
1726.79 0.356662
1728.24 0.355983
1729.69 0.356819
1731.14 0.356112
1732.59 0.352329
1734.04 0.354426
1735.49 0.357091
1736.93 0.355981
1738.38 0.351849
1739.82 0.352945
1741.26 0.351076
1742.7 0.356565
1744.15 0.350789
1745.59 0.348846
1747.03 0.352636
1748.46 0.349438
1749.9 0.351189
1751.34 0.351015
1752.78 0.350379
1754.21 0.344418
1755.65 0.347879
1757.08 0.345335
1758.51 0.350284
1759.94 0.340821
1761.38 0.347617
1762.81 0.346925
1764.24 0.344497
1765.66 0.345081
1767.09 0.350814
1768.52 0.341531
1769.94 0.347394
1771.37 0.341629
1772.79 0.33749
1774.22 0.33897
1775.64 0.339163
1777.06 0.337727
1778.48 0.341484
1779.9 0.332307
1781.32 0.336694
1782.74 0.337259
1784.16 0.331939
1785.58 0.33541
1786.99 0.332999
1788.41 0.331443
1789.82 0.330902
1791.23 0.336928
1792.65 0.333049
1794.06 0.328566
1795.47 0.335307
1796.88 0.337763
1798.29 0.335786
1799.7 0.338408
1801.11 0.336997
1802.51 0.342743
1803.92 0.337551
1805.32 0.336253
1806.73 0.344161
1808.13 0.338028
1809.53 0.336577
1810.94 0.336735
1812.34 0.337617
1813.74 0.335958
1815.14 0.336203
1816.53 0.338024
1817.93 0.336333
1819.33 0.337749
1820.72 0.334839
1822.12 0.327091
1823.51 0.343033
1824.91 0.335873
1826.3 0.336045
1827.69 0.33507
1829.08 0.333937
1830.47 0.3378
1831.86 0.336755
1833.25 0.331882
1834.64 0.336931
1836.03 0.333682
1837.41 0.331586
1838.8 0.330687
1840.18 0.326783
1841.57 0.323273
1842.95 0.324697
1844.33 0.326024
1845.71 0.324183
1847.09 0.328219
1848.47 0.321162
1849.85 0.321099
1851.23 0.32086
1852.61 0.322451
1853.98 0.320156
1855.36 0.326173
1856.73 0.323419
1858.11 0.325683
1859.48 0.321086
1860.85 0.322059
1862.22 0.319617
1863.59 0.321261
1864.96 0.313033
1866.33 0.318266
1867.7 0.318227
1869.07 0.321434
1870.44 0.319268
1871.8 0.316141
1873.17 0.318829
1874.53 0.316853
1875.9 0.31596
1877.26 0.317655
1878.62 0.306231
1879.98 0.315664
1881.34 0.307146
1882.7 0.310707
1884.06 0.3162
1885.42 0.303082
1886.77 0.308628
1888.13 0.312514
1889.49 0.309996
1890.84 0.306872
1892.19 0.307614
1893.55 0.30646
1894.9 0.301755
1896.25 0.305788
1897.6 0.31124
1898.95 0.30585
1900.3 0.30958
1901.65 0.311029
1903 0.305814
1904.34 0.309724
1905.69 0.305495
1907.03 0.307445
1908.38 0.311455
1909.72 0.315662
1911.07 0.305694
1912.41 0.312274
1913.75 0.307911
1915.09 0.309957
1916.43 0.308389
1917.77 0.30538
1919.11 0.306012
1920.44 0.306158
1921.78 0.308668
1923.12 0.311316
1924.45 0.30789
1925.78 0.313846
1927.12 0.311102
1928.45 0.313907
1929.78 0.309694
1931.11 0.311483
1932.44 0.309585
1933.77 0.309112
1935.1 0.310791
1936.43 0.308517
1937.76 0.310064
1939.08 0.3061
1940.41 0.307088
1941.73 0.309707
1943.06 0.299355
1944.38 0.305593
1945.7 0.308725
1947.02 0.30418
1948.34 0.300659
1949.66 0.299381
1950.98 0.297631
1952.3 0.299228
1953.62 0.298846
1954.94 0.30062
1956.25 0.294849
1957.57 0.291908
1958.88 0.290596
1960.2 0.290017
1961.51 0.291676
1962.82 0.289009
1964.13 0.293501
1965.45 0.284133
1966.76 0.291616
1968.07 0.2904
1969.37 0.28907
1970.68 0.291194
1971.99 0.294243
1973.29 0.295322
1974.6 0.296677
1975.9 0.291635
1977.21 0.296794
1978.51 0.297145
1979.81 0.296764
1981.12 0.293624
1982.42 0.296043
1983.72 0.295947
1985.02 0.293904
1986.31 0.29106
1987.61 0.287287
1988.91 0.297233
1990.21 0.293276
1991.5 0.29408
1992.8 0.290226
1994.09 0.286612
1995.38 0.287874
1996.68 0.287217
1997.97 0.293899
1999.26 0.295406
2000.55 0.288086
2001.84 0.289637
2003.13 0.290309
2004.42 0.291066
2005.7 0.286552
2006.99 0.290254
2008.27 0.287284
2009.56 0.286635
2010.84 0.288216
2012.13 0.288655
2013.41 0.28572
2014.69 0.290634
2015.97 0.286411
2017.25 0.287999
2018.53 0.284724
2019.81 0.287014
2021.09 0.286768
2022.37 0.290391
2023.64 0.288671
2024.92 0.284074
2026.2 0.285482
2027.47 0.286327
2028.74 0.284324
2030.02 0.28506
2031.29 0.28902
2032.56 0.285966
2033.83 0.281852
2035.1 0.284392
2036.37 0.284056
2037.64 0.283751
2038.91 0.279419
2040.17 0.281511
2041.44 0.285831
2042.7 0.285958
2043.97 0.283394
2045.23 0.291228
2046.5 0.279864
2047.76 0.281242
2049.02 0.288273
2050.28 0.283719
2051.54 0.284974
2052.8 0.284834
2054.06 0.278672
2055.32 0.2779
2056.58 0.279602
2057.83 0.280382
2059.09 0.277589
2060.34 0.278604
2061.6 0.277915
2062.85 0.283621
2064.11 0.281159
2065.36 0.285172
2066.61 0.281857
2067.86 0.281267
2069.11 0.277942
2070.36 0.277819
2071.61 0.278971
2072.86 0.282632
2074.1 0.280559
2075.35 0.277413
2076.59 0.280674
2077.84 0.285761
2079.08 0.273749
2080.33 0.283409
2081.57 0.276054
2082.81 0.28442
2084.05 0.274215
2085.29 0.26628
2086.53 0.275781
2087.77 0.275109
2089.01 0.280935
2090.25 0.278197
2091.48 0.277273
2092.72 0.278829
2093.96 0.280503
2095.19 0.270669
2096.43 0.275255
2097.66 0.272598
2098.89 0.278312
2100.12 0.270247
2101.35 0.274757
2102.58 0.282137
2103.81 0.274833
2105.04 0.271508
2106.27 0.279264
2107.5 0.278411
2108.73 0.280176
2109.95 0.272273
2111.18 0.270672
2112.4 0.277935
2113.63 0.270162
2114.85 0.271092
2116.07 0.274084
2117.29 0.276127
2118.51 0.271261
2119.73 0.269467
2120.95 0.275164
2122.17 0.275838
2123.39 0.279797
2124.61 0.276333
2125.82 0.267168
2127.04 0.270631
2128.26 0.272702
2129.47 0.276418
2130.68 0.273265
2131.9 0.274277
2133.11 0.278968
2134.32 0.27231
2135.53 0.27316
2136.74 0.274536
2137.95 0.270742
2139.16 0.275655
2140.37 0.275154
2141.58 0.273189
2142.78 0.269296
2143.99 0.266906
2145.2 0.27044
2146.4 0.277952
2147.6 0.268936
2148.81 0.265762
2150.01 0.27004
2151.21 0.268793
2152.41 0.26902
2153.61 0.264005
2154.81 0.262892
2156.01 0.267044
2157.21 0.267059
2158.41 0.27271
2159.6 0.272138
2160.8 0.266851
2162 0.269928
2163.19 0.271254
2164.38 0.267662
2165.58 0.268832
2166.77 0.266085
2167.96 0.272081
2169.15 0.264866
2170.34 0.267277
2171.53 0.266397
2172.72 0.263793
2173.91 0.268218
2175.1 0.260572
2176.29 0.268104
2177.47 0.268331
2178.66 0.267265
2179.84 0.273423
2181.03 0.26667
2182.21 0.268299
2183.39 0.269091
2184.58 0.268426
2185.76 0.265712
2186.94 0.27078
2188.12 0.261966
2189.3 0.260441
2190.48 0.262769
2191.65 0.268189
2192.83 0.27001
2194.01 0.269406
2195.18 0.26435
2196.36 0.268041
2197.53 0.267641
2198.71 0.26656
2199.88 0.265046
2201.05 0.261924
2202.23 0.264602
2203.4 0.263038
2204.57 0.263375
2205.74 0.2607
2206.91 0.265162
2208.07 0.266085
2209.24 0.258021
2210.41 0.260068
2211.57 0.26616
2212.74 0.261367
2213.9 0.264643
2215.07 0.262996
2216.23 0.265292
2217.4 0.263555
2218.56 0.26358
2219.72 0.263088
2220.88 0.263456
2222.04 0.267423
2223.2 0.266649
2224.36 0.259934
2225.52 0.264716
2226.67 0.262522
2227.83 0.271439
2228.99 0.270261
2230.14 0.26334
2231.3 0.262992
2232.45 0.257832
2233.6 0.270916
2234.76 0.26306
2235.91 0.259239
2237.06 0.254977
2238.21 0.261609
2239.36 0.260847
2240.51 0.265909
2241.66 0.269924
2242.8 0.26611
2243.95 0.262909
2245.1 0.260365
2246.24 0.261603
2247.39 0.265922
2248.53 0.269579
2249.68 0.263183
2250.82 0.271588
2251.96 0.251498
2253.1 0.25122
2254.24 0.261052
2255.38 0.264997
2256.52 0.263332
2257.66 0.26774
2258.8 0.259571
2259.94 0.25158
2261.08 0.26163
2262.21 0.257318
2263.35 0.257705
2264.48 0.262333
2265.62 0.266141
2266.75 0.258572
2267.88 0.262736
2269.02 0.268605
2270.15 0.257183
2271.28 0.250216
2272.41 0.259551
2273.54 0.260853
2274.67 0.26237
2275.8 0.258732
2276.92 0.261594
2278.05 0.256119
2279.18 0.255789
2280.3 0.263879
2281.43 0.262054
2282.55 0.264796
2283.67 0.2575
2284.8 0.264936
2285.92 0.259102
2287.04 0.255576
2288.16 0.258514
2289.28 0.253643
2290.4 0.26119
2291.52 0.259328
2292.64 0.261876
2293.76 0.254765
2294.87 0.258766
2295.99 0.255976
2297.1 0.262655
2298.22 0.258483
2299.33 0.25628
2300.45 0.256278
2301.56 0.257294
2302.67 0.254877
2303.78 0.262363
2304.89 0.260946
2306 0.260022
2307.11 0.258568
2308.22 0.253838
2309.33 0.264273
2310.44 0.255541
2311.55 0.256713
2312.65 0.25816
2313.76 0.258436
2314.86 0.245892
2315.97 0.250653
2317.07 0.255545
2318.17 0.257329
2319.27 0.250005
2320.38 0.256571
2321.48 0.26151
2322.58 0.251544
2323.68 0.255569
2324.78 0.24914
2325.87 0.249588
2326.97 0.247766
2328.07 0.258183
2329.17 0.252993
2330.26 0.256777
2331.36 0.253271
2332.45 0.256751
2333.54 0.259515
2334.64 0.256613
2335.73 0.252666
2336.82 0.254437
2337.91 0.259459
2339 0.250825
2340.09 0.25687
2341.18 0.251395
2342.27 0.254526
2343.36 0.245097
2344.45 0.250459
2345.53 0.250348
2346.62 0.252089
2347.7 0.252081
2348.79 0.247929
2349.87 0.255763
2350.96 0.248652
2352.04 0.24622
2353.12 0.252831
2354.2 0.24809
2355.28 0.250573
2356.36 0.249266
2357.44 0.248699
2358.52 0.252503
2359.6 0.245507
2360.67 0.249875
2361.75 0.246942
2362.83 0.245303
2363.9 0.249706
2364.98 0.253784
2366.05 0.256604
2367.13 0.242309
2368.2 0.245089
2369.27 0.247809
2370.34 0.255917
2371.41 0.249381
2372.48 0.247588
2373.55 0.250963
2374.62 0.250185
2375.69 0.246744
2376.76 0.253325
2377.83 0.249848
2378.89 0.240065
2379.96 0.246099
2381.02 0.241454
2382.09 0.249884
2383.15 0.248721
2384.21 0.24815
2385.28 0.250833
2386.34 0.24489
2387.4 0.240759
2388.46 0.25227
2389.52 0.239968
2390.58 0.241245
2391.64 0.245318
2392.7 0.244149
2393.75 0.250771
2394.81 0.246346
2395.87 0.235368
2396.92 0.245987
2397.98 0.250727
2399.03 0.256345
2400.08 0.243169
2401.14 0.259955
2402.19 0.247124
2403.24 0.244238
2404.29 0.248502
2405.34 0.255457
2406.39 0.248189
2407.44 0.251838
2408.49 0.243528
2409.54 0.242332
2410.58 0.249224
2411.63 0.245094
2412.68 0.246996
2413.72 0.241212
2414.77 0.244014
2415.81 0.252353
2416.85 0.247317
2417.9 0.245878
2418.94 0.253869
2419.98 0.249252
2421.02 0.245189
2422.06 0.247203
2423.1 0.236023
2424.14 0.245348
2425.18 0.248179
2426.22 0.241834
2427.25 0.246501
2428.29 0.246237
2429.32 0.24524
2430.36 0.24099
2431.39 0.249617
2432.43 0.252465
2433.46 0.250594
2434.49 0.25074
2435.52 0.241433
2436.56 0.242941
2437.59 0.250325
2438.62 0.246747
2439.65 0.245637
2440.67 0.246226
2441.7 0.240454
2442.73 0.246485
2443.76 0.252019
2444.78 0.234276
2445.81 0.244473
2446.83 0.2424
2447.86 0.2474
2448.88 0.23799
2449.9 0.240201
2450.93 0.25105
2451.95 0.237362
2452.97 0.252639
2453.99 0.250024
2455.01 0.241776
2456.03 0.244451
2457.05 0.235063
2458.07 0.246268
2459.08 0.240377
2460.1 0.235697
2461.12 0.245691
2462.13 0.24413
2463.15 0.230829
2464.16 0.235577
2465.17 0.234793
2466.19 0.238838
2467.2 0.244475
2468.21 0.23965
2469.22 0.245561
2470.23 0.241102
2471.24 0.231858
2472.25 0.238326
2473.26 0.239625
2474.27 0.231265
2475.28 0.24012
2476.28 0.240172
2477.29 0.240665
2478.29 0.236591
2479.3 0.237275
2480.3 0.24229
2481.31 0.247357
2482.31 0.245323
2483.31 0.241614
2484.31 0.23998
2485.31 0.23531
2486.31 0.236312
2487.31 0.226911
2488.31 0.237198
2489.31 0.248234
2490.31 0.2328
2491.31 0.237155
2492.3 0.23664
2493.3 0.241134
2494.29 0.242865
2495.29 0.240216
2496.28 0.232005
2497.28 0.238559
2498.27 0.235901
2499.26 0.240112
2500.25 0.229255
2501.25 0.235326
2502.24 0.239495
2503.23 0.236702
2504.21 0.238449
2505.2 0.237233
2506.19 0.232967
2507.18 0.233166
2508.17 0.238917
2509.15 0.23732
2510.14 0.237498
2511.12 0.232
2512.11 0.236851
2513.09 0.240235
2514.07 0.232134
2515.06 0.239597
2516.04 0.239858
2517.02 0.231717
2518 0.223989
2518.98 0.232251
2519.96 0.225572
2520.94 0.234957
2521.91 0.247412
2522.89 0.235072
2523.87 0.234716
2524.84 0.239572
2525.82 0.237886
2526.79 0.233456
2527.77 0.242011
2528.74 0.233693
2529.72 0.23567
2530.69 0.230178
2531.66 0.24351
2532.63 0.233132
2533.6 0.247274
2534.57 0.227684
2535.54 0.233297
2536.51 0.235272
2537.48 0.23719
2538.45 0.238864
2539.41 0.239006
2540.38 0.237594
2541.34 0.228067
2542.31 0.232444
2543.27 0.23379
2544.24 0.242043
2545.2 0.235392
2546.16 0.246114
2547.13 0.234488
2548.09 0.235475
2549.05 0.229235
2550.01 0.233082
2550.97 0.233203
2551.93 0.239497
2552.88 0.228983
2553.84 0.232304
2554.8 0.239632
2555.76 0.229534
2556.71 0.239118
2557.67 0.23644
2558.62 0.236467
2559.58 0.228517
2560.53 0.23613
2561.48 0.236761
2562.43 0.237124
2563.38 0.246369
2564.34 0.239761
2565.29 0.235543
2566.24 0.229426
2567.18 0.236523
2568.13 0.225053
2569.08 0.231395
2570.03 0.229991
2570.98 0.239692
2571.92 0.243983
2572.87 0.233306
2573.81 0.230769
2574.76 0.239669
2575.7 0.239092
2576.64 0.239097
2577.58 0.255235
2578.53 0.237968
2579.47 0.234617
2580.41 0.235606
2581.35 0.231888
2582.29 0.231447
2583.23 0.241585
2584.16 0.230586
2585.1 0.229037
2586.04 0.239954
2586.97 0.227322
2587.91 0.241797
2588.84 0.242369
2589.78 0.226938
2590.71 0.229438
2591.64 0.245334
2592.58 0.240182
2593.51 0.247848
2594.44 0.239114
2595.37 0.244584
2596.3 0.237305
2597.23 0.240997
2598.16 0.236941
2599.09 0.238661
2600.02 0.251122
2600.94 0.237343
2601.87 0.233484
2602.8 0.242237
2603.72 0.230072
2604.64 0.245939
2605.57 0.244442
2606.49 0.242547
2607.41 0.238167
2608.34 0.225778
2609.26 0.24826
2610.18 0.230888
2611.1 0.250276
2612.02 0.253438
2612.94 0.24965
2613.86 0.243523
2614.78 0.239806
2615.69 0.236146
2616.61 0.236267
2617.53 0.244835
2618.44 0.242594
2619.36 0.234327
2620.27 0.232917
2621.18 0.230508
2622.1 0.249004
2623.01 0.233934
2623.92 0.234445
2624.83 0.22983
2625.74 0.245254
2626.65 0.229515
2627.56 0.232386
2628.47 0.234917
2629.38 0.231594
2630.29 0.242028
2631.19 0.234164
2632.1 0.240706
2633 0.230996
2633.91 0.247682
2634.81 0.24858
2635.72 0.236835
2636.62 0.244709
2637.52 0.244258
2638.43 0.246746
2639.33 0.253839
2640.23 0.234974
2641.13 0.252421
2642.03 0.250086
2642.93 0.231192
2643.83 0.24559
2644.72 0.24255
2645.62 0.233166
2646.52 0.237387
2647.41 0.243405
2648.31 0.242615
2649.2 0.248536
2650.1 0.254819
2650.99 0.239105
2651.88 0.251091
2652.78 0.231293
2653.67 0.239944
2654.56 0.246633
2655.45 0.254709
2656.34 0.250307
2657.23 0.234981
2658.12 0.234039
2659.01 0.247519
2659.89 0.251253
2660.78 0.238603
2661.67 0.240096
2662.55 0.246657
2663.44 0.247049
2664.32 0.242827
2665.21 0.238817
2666.09 0.239635
2666.97 0.254894
2667.85 0.24119
2668.74 0.257093
2669.62 0.240587
2670.5 0.249138
2671.38 0.241949
2672.26 0.257266
2673.13 0.244091
2674.01 0.243303
2674.89 0.244508
2675.77 0.225689
2676.64 0.254421
2677.52 0.241902
2678.39 0.245877
2679.27 0.254081
2680.14 0.25764
2681.01 0.241007
2681.88 0.248714
2682.76 0.251653
2683.63 0.246464
2684.5 0.254341
2685.37 0.245904
2686.24 0.255341
2687.11 0.250626
2687.97 0.245354
2688.84 0.235447
2689.71 0.235383
2690.57 0.244949
2691.44 0.263499
2692.3 0.238793
2693.17 0.25521
2694.03 0.248378
2694.9 0.249927
2695.76 0.256501
2696.62 0.234064
2697.48 0.242042
2698.34 0.2439
2699.2 0.252137
2700.06 0.241864
2700.92 0.241401
2701.78 0.241826
2702.64 0.247205
2703.5 0.267508
2704.35 0.246799
2705.21 0.264184
2706.06 0.241637
2706.92 0.251324
2707.77 0.264769
2708.63 0.259522
2709.48 0.249563
2710.33 0.264402
2711.18 0.272854
2712.03 0.270146
2712.89 0.274497
2713.73 0.256911
2714.58 0.268462
2715.43 0.257777
2716.28 0.257903
2717.13 0.261747
2717.98 0.26835
2718.82 0.273672
2719.67 0.285733
2720.51 0.257132
2721.36 0.280073
2722.2 0.261879
2723.04 0.288661
2723.89 0.258548
2724.73 0.282022
2725.57 0.290885
2726.41 0.271264
2727.25 0.281272
2728.09 0.279568
2728.93 0.265425
2729.77 0.270865
2730.61 0.271194
2731.44 0.256304
2732.28 0.273322
2733.12 0.28756
2733.95 0.261163
2734.79 0.27321
2735.62 0.28163
2736.45 0.267404
2737.29 0.259122
2738.12 0.269755
2738.95 0.271827
2739.78 0.253164
2740.61 0.278404
2741.44 0.248397
2742.27 0.253921
2743.1 0.243321
2743.93 0.2455
2744.76 0.258146
2745.58 0.244288
2746.41 0.245295
2747.24 0.252773
2748.06 0.244531
2748.89 0.265185
2749.71 0.231798
2750.53 0.235632
2751.36 0.250728
2752.18 0.240388
2753 0.233774
2753.82 0.247226
2754.64 0.234635
2755.46 0.24885
2756.28 0.244177
2757.1 0.235681
2757.91 0.240589
2758.73 0.253845
2759.55 0.233102
2760.36 0.244994
2761.18 0.241907
2761.99 0.235139
2762.81 0.238297
2763.62 0.240427
2764.44 0.235654
2765.25 0.231152
2766.06 0.22221
2766.87 0.228523
2767.68 0.214333
2768.49 0.235897
2769.3 0.233201
2770.11 0.244481
2770.92 0.251477
2771.72 0.231875
2772.53 0.227018
2773.34 0.218644
2774.14 0.220492
2774.95 0.225451
2775.75 0.242354
2776.56 0.241025
2777.36 0.231952
2778.16 0.230608
2778.96 0.226871
2779.77 0.244665
2780.57 0.24277
2781.37 0.23926
2782.17 0.238022
2782.97 0.243407
2783.76 0.227333
2784.56 0.222116
2785.36 0.232726
2786.16 0.235744
2786.95 0.237978
2787.75 0.214813
2788.54 0.242947
2789.34 0.241308
2790.13 0.248912
2790.92 0.234449
2791.71 0.229209
2792.51 0.245761
2793.3 0.246848
2794.09 0.249291
2794.88 0.232542
2795.67 0.240461
2796.45 0.233699
2797.24 0.24421
2798.03 0.245742
2798.82 0.226518
2799.6 0.234925
2800.39 0.237635
2801.17 0.239972
2801.96 0.223893
2802.74 0.256689
2803.52 0.265557
2804.31 0.240472
2805.09 0.253619
2805.87 0.238894
2806.65 0.24143
2807.43 0.247691
2808.21 0.252713
2808.99 0.242457
2809.77 0.248708
2810.55 0.249594
2811.32 0.257563
2812.1 0.248896
2812.87 0.24567
2813.65 0.259597
2814.42 0.252803
2815.2 0.263447
2815.97 0.269713
2816.74 0.262807
2817.52 0.270283
2818.29 0.278872
2819.06 0.276689
2819.83 0.268731
2820.6 0.301904
2821.37 0.264515
2822.14 0.261196
2822.9 0.28164
2823.67 0.291852
2824.44 0.267429
2825.2 0.292434
2825.97 0.293743
2826.73 0.299936
2827.5 0.31886
2828.26 0.291121
2829.02 0.318218
2829.79 0.335943
2830.55 0.330012
2831.31 0.334606
2832.07 0.365431
2832.83 0.371623
2833.59 0.393927
2834.35 0.387046
2835.11 0.432731
2835.86 0.423638
2836.62 0.457361
2837.38 0.485295
2838.13 0.512924
2838.89 0.485823
2839.64 0.54077
2840.39 0.582017
2841.15 0.58292
2841.9 0.592798
2842.65 0.635401
2843.4 0.671725
2844.15 0.70383
2844.9 0.711834
2845.65 0.721536
2846.4 0.75244
2847.15 0.786662
2847.9 0.805121
2848.65 0.786923
2849.39 0.811947
2850.14 0.843178
2850.88 0.866115
2851.63 0.852828
2852.37 0.83573
2853.11 0.823033
2853.86 0.832
2854.6 0.806819
2855.34 0.827955
2856.08 0.826654
2856.82 0.821783
2857.56 0.819085
2858.3 0.819946
2859.04 0.810349
2859.78 0.826931
2860.51 0.814153
2861.25 0.797709
2861.98 0.820454
2862.72 0.791737
2863.45 0.804958
2864.19 0.827483
2864.92 0.844301
2865.65 0.837718
2866.39 0.858768
2867.12 0.853165
2867.85 0.829503
2868.58 0.863805
2869.31 0.852119
2870.04 0.872068
2870.77 0.887807
2871.49 0.853136
2872.22 0.876003
2872.95 0.864326
2873.67 0.885176
2874.4 0.898526
2875.12 0.912084
2875.85 0.871712
2876.57 0.883821
2877.29 0.85929
2878.02 0.907268
2878.74 0.933241
2879.46 0.957609
2880.18 0.954555
2880.9 0.978521
2881.62 1.01402
2882.34 0.986329
2883.05 1.04142
2883.77 0.988511
2884.49 1.00185
2885.2 1.00993
2885.92 1.00304
2886.63 1.01161
2887.35 1.01462
2888.06 0.985891
2888.77 1.02386
2889.49 1.006
2890.2 0.991118
2890.91 0.986735
2891.62 1.01111
2892.33 0.978763
2893.04 1.01327
2893.75 0.982211
2894.45 1.02359
2895.16 0.971313
2895.87 0.981483
2896.57 0.974443
2897.28 0.970528
2897.98 0.987006
2898.69 0.985701
2899.39 0.991921
2900.09 0.975387
2900.8 0.97661
2901.5 0.976753
2902.2 0.955384
2902.9 0.991258
2903.6 0.9703
2904.3 0.975936
2904.99 0.941097
spectrumdark 2048
-91.5031 3278
-88.9051 3284
-86.3087 2713
-83.7142 2899
-81.1212 2429
-78.5301 2409
-75.9406 2461
-73.3527 2583
-70.7667 2483
-68.1823 2423
-65.5996 2410
-63.0186 2574
-60.4394 2451
-57.8617 2682
-55.2858 2511
-52.7116 2604
-50.1391 2376
-47.5684 2494
-44.9992 2665
-42.4318 2455
-39.866 2612
-37.3019 2532
-34.7396 2420
-32.1788 2530
-29.6198 2519
-27.0624 2405
-24.5069 2525
-21.9529 2501
-19.4005 2505
-16.8499 2455
-14.3009 2567
-11.7537 2555
-9.20809 2555
-6.66424 2539
-4.12196 2475
-1.5813 2550
0.957536 2586
3.49488 2443
6.03038 2595
8.56432 2730
11.0966 2628
13.6272 2564
16.1562 2615
18.6834 2646
21.209 2492
23.733 2448
26.2553 2513
28.776 2627
31.295 2409
33.8123 2757
36.328 2665
38.8421 2643
41.3544 2599
43.8652 2471
46.3743 2555
48.8818 2539
51.3876 2595
53.8917 2603
56.3943 2487
58.8952 2551
61.3944 2626
63.892 2442
66.388 2495
68.8824 2510
71.3751 2603
73.8661 2616
76.3555 2481
78.8434 2599
81.3295 2457
83.8141 2710
86.297 2632
88.7783 2587
91.258 2602
93.736 2570
96.2125 2489
98.6872 2792
101.161 2666
103.632 2581
106.102 2628
108.571 2662
111.037 2501
113.502 2612
115.966 2694
118.428 2673
120.888 2944
123.347 2911
125.804 3152
128.259 3520
130.713 4006
133.165 4944
135.616 5755
138.065 6692
140.512 7888
142.958 8557
145.402 9545
147.845 10115
150.286 10469
152.725 10396
155.163 10766
157.6 11063
160.034 11079
162.467 11227
164.899 11205
167.329 10936
169.757 11274
172.184 11127
174.609 11295
177.032 11315
179.454 11537
181.875 11956
184.293 13511
186.711 14118
189.126 15119
191.54 16794
193.953 17229
196.364 18187
198.773 18905
201.181 19510
203.587 19805
205.992 19795
208.395 19890
210.796 19907
213.196 19732
215.595 19707
217.991 19699
220.387 19972
222.78 20023
225.172 20005
227.563 19983
229.952 19902
232.339 19913
234.725 19491
237.109 19142
239.492 19235
241.873 19148
244.253 19402
246.631 19602
249.008 19428
251.383 19055
253.756 19052
256.128 19164
258.499 19001
260.868 19205
263.235 19630
265.601 19393
267.965 19512
270.327 19478
272.689 19238
275.048 19172
277.406 18950
279.763 18841
282.118 18592
284.471 18864
286.823 19185
289.174 19501
291.522 19502
293.87 19505
296.216 19312
298.56 19602
300.903 20066
303.244 19433
305.584 19635
307.922 19309
310.259 18833
312.594 20156
314.927 19234
317.259 19639
319.59 19794
321.919 19891
324.247 19881
326.573 20225
328.897 20546
331.221 20688
333.542 20930
335.862 20771
338.181 20178
340.498 19941
342.813 19856
345.127 20072
347.44 19455
349.751 19401
352.06 19418
354.368 20356
356.675 19668
358.98 19519
361.283 19746
363.585 19420
365.886 19397
368.185 19064
370.483 18835
372.779 18960
375.073 19152
377.366 19194
379.658 19316
381.948 18910
384.237 18636
386.524 18353
388.809 18621
391.094 18641
393.376 18817
395.658 19708
397.937 21491
400.216 22374
402.493 22359
404.768 21491
407.042 20152
409.314 22466
411.585 27928
413.855 30075
416.122 29846
418.389 26569
420.654 21232
422.918 19528
425.18 18290
427.44 17924
429.7 17699
431.957 17769
434.214 17965
436.468 17808
438.722 17512
440.974 16914
443.224 15958
445.473 15662
447.721 15836
449.967 16264
452.211 16437
454.454 16048
456.696 15821
458.936 15657
461.175 15764
463.413 15582
465.649 14848
467.883 14503
470.116 14882
472.348 14825
474.578 14685
476.807 14865
479.034 14898
481.26 15272
483.484 15394
485.707 14486
487.929 13666
490.149 12852
492.368 13353
494.585 14221
496.801 14249
499.015 14548
501.228 14876
503.439 15386
505.65 16259
507.858 15578
510.066 14001
512.271 13409
514.476 13152
516.679 14110
518.88 15028
521.081 15251
523.279 15722
525.477 16161
527.673 16957
529.867 17488
532.06 16911
534.252 16844
536.442 15727
538.631 14734
540.818 14625
543.004 14458
545.189 14709
547.372 15579
549.554 16820
551.734 17571
553.914 17892
556.091 17431
558.267 17118
560.442 16596
562.616 16334
564.788 16300
566.958 16286
569.127 16145
571.295 16013
573.462 15673
575.627 15785
577.79 15100
579.953 14587
582.114 13707
584.273 12015
586.431 10635
588.588 10248
590.743 10823
592.897 11994
595.05 13234
597.201 14438
599.351 15104
601.499 15418
603.646 15881
605.792 15712
607.936 15245
610.079 15593
612.221 15633
614.361 16370
616.5 16920
618.637 16914
620.773 16803
622.908 16482
625.041 15960
627.173 15429
629.304 15384
631.433 14891
633.561 16073
635.687 17808
637.812 18439
639.936 18785
642.058 18583
644.179 17571
646.299 16812
648.418 16194
650.535 15514
652.65 14787
654.764 13931
656.877 14092
658.989 14292
661.099 14665
663.208 15022
665.315 15370
667.422 15648
669.526 15733
671.63 15291
673.732 14452
675.833 14284
677.932 14572
680.03 14538
682.127 14455
684.223 15176
686.317 17352
688.409 18824
690.501 19052
692.591 18530
694.68 16104
696.767 14832
698.853 14193
700.938 14577
703.021 14985
705.103 15457
707.184 15817
709.264 14986
711.342 14910
713.418 14667
715.494 14611
717.568 14395
719.641 13852
721.712 13809
723.782 14295
725.851 14879
727.919 15446
729.985 15476
732.05 15230
734.113 15082
736.176 14931
738.237 14413
740.296 14525
742.355 15916
744.412 14744
746.467 14526
748.522 14735
750.575 14758
752.627 15168
754.677 16377
756.726 15536
758.774 15658
760.82 15520
762.866 15457
764.91 15438
766.952 15672
768.994 15669
771.034 15425
773.072 15474
775.11 16237
777.146 15313
779.181 15191
781.215 15666
783.247 15340
785.278 15378
787.308 15690
789.336 15794
791.363 15576
793.389 15705
795.413 15881
797.437 15537
799.459 15389
801.479 15056
803.499 15038
805.517 15687
807.534 15863
809.549 15955
811.564 15388
813.577 15373
815.588 15186
817.599 14895
819.608 15455
821.616 15632
823.623 15738
825.628 15529
827.632 15650
829.635 15526
831.637 15424
833.637 15697
835.636 15559
837.634 15937
839.63 15600
841.625 15792
843.619 15635
845.612 16466
847.603 15634
849.594 15817
851.583 15721
853.57 16015
855.557 15525
857.542 15189
859.526 15271
861.508 15426
863.49 15463
865.47 15898
867.449 15982
869.426 16143
871.403 16089
873.378 16047
875.352 15521
877.324 15680
879.296 15622
881.266 15478
883.235 15050
885.203 15110
887.169 16344
889.134 14789
891.098 14933
893.061 14928
895.022 15164
896.982 15208
898.941 15074
900.899 14730
902.856 15204
904.811 15136
906.765 15336
908.718 15004
910.669 15237
912.62 15372
914.569 15145
916.517 15268
918.463 15100
920.409 15663
922.353 14968
924.296 15034
926.238 14972
928.178 14849
930.118 14695
932.056 14697
933.993 14732
935.928 14748
937.863 15011
939.796 14974
941.728 14879
943.659 14704
945.588 14821
947.517 14814
949.444 16009
951.37 14806
953.294 14865
955.218 15182
957.14 14777
959.061 14815
960.981 14889
962.9 14767
964.817 14720
966.734 14490
968.649 13779
970.563 13335
972.475 12667
974.387 12664
976.297 13097
978.206 13811
980.114 14166
982.021 14446
983.926 15052
985.83 15386
987.733 15611
989.635 15572
991.536 14997
993.435 14301
995.334 14045
997.231 14119
999.127 14128
1001.02 14247
1002.91 14602
1004.8 14670
1006.69 14443
1008.58 14424
1010.47 14354
1012.36 14024
1014.25 14209
1016.13 14434
1018.02 14156
1019.9 14249
1021.78 14149
1023.66 13590
1025.54 13209
1027.42 12644
1029.3 12087
1031.17 10874
1033.05 10225
1034.92 10415
1036.79 10977
1038.66 11879
1040.53 12337
1042.4 13439
1044.27 13279
1046.14 13994
1048 13495
1049.87 13402
1051.73 13495
1053.59 13467
1055.45 13417
1057.31 13598
1059.17 13644
1061.03 13491
1062.88 14027
1064.74 13935
1066.59 14149
1068.44 13613
1070.3 13734
1072.15 13687
1074 13686
1075.84 13802
1077.69 13726
1079.54 13772
1081.38 13990
1083.22 14104
1085.07 13660
1086.91 13568
1088.75 13664
1090.59 13532
1092.42 13533
1094.26 13588
1096.09 13553
1097.93 13673
1099.76 13408
1101.59 13555
1103.42 13516
1105.25 13539
1107.08 13663
1108.91 13328
1110.74 13335
1112.56 13381
1114.38 13546
1116.21 13846
1118.03 13377
1119.85 13555
1121.67 14315
1123.49 13368
1125.3 13376
1127.12 13314
1128.94 13159
1130.75 13423
1132.56 13425
1134.37 13420
1136.18 13516
1137.99 13375
1139.8 13423
1141.61 13478
1143.41 13545
1145.22 13548
1147.02 13462
1148.82 13454
1150.63 13560
1152.43 14086
1154.23 13309
1156.02 13448
1157.82 13292
1159.62 13244
1161.41 13317
1163.2 13254
1165 13112
1166.79 13201
1168.58 13085
1170.37 13147
1172.16 13056
1173.94 13013
1175.73 12823
1177.51 12810
1179.3 12642
1181.08 12832
1182.86 12822
1184.64 12906
1186.42 12665
1188.2 12652
1189.98 12109
1191.75 11548
1193.53 10585
1195.3 10442
1197.07 9949
1198.84 10659
1200.61 11585
1202.38 11930
1204.15 12308
1205.92 12307
1207.69 12527
1209.45 12367
1211.21 12497
1212.98 13425
1214.74 12623
1216.5 12526
1218.26 12623
1220.02 12775
1221.78 12523
1223.53 12750
1225.29 12384
1227.04 12354
1228.79 12207
1230.55 12202
1232.3 12345
1234.05 12217
1235.79 12213
1237.54 12463
1239.29 12400
1241.03 12451
1242.78 12539
1244.52 12454
1246.26 12198
1248.01 12480
1249.75 12538
1251.49 12286
1253.22 12296
1254.96 12416
1256.7 12248
1258.43 12104
1260.16 12041
1261.9 12072
1263.63 11968
1265.36 12013
1267.09 12157
1268.82 12055
1270.54 12132
1272.27 12153
1274 12218
1275.72 12106
1277.44 12143
1279.16 12064
1280.89 12022
1282.61 11864
1284.32 11896
1286.04 11938
1287.76 12001
1289.47 12137
1291.19 11913
1292.9 11828
1294.62 11816
1296.33 11670
1298.04 11847
1299.75 11683
1301.45 11793
1303.16 11845
1304.87 12004
1306.57 11790
1308.28 11919
1309.98 11638
1311.68 11698
1313.38 11792
1315.08 11588
1316.78 11507
1318.48 11689
1320.18 11832
1321.87 11796
1323.57 11716
1325.26 11627
1326.95 11571
1328.65 11797
1330.34 11705
1332.03 11765
1333.72 11727
1335.4 11782
1337.09 11578
1338.77 11890
1340.46 11530
1342.14 12426
1343.82 14368
1345.51 15460
1347.19 15789
1348.87 15345
1350.54 13796
1352.22 12352
1353.9 11880
1355.57 11599
1357.25 11611
1358.92 11712
1360.59 11773
1362.26 11432
1363.93 11407
1365.6 11182
1367.27 11092
1368.94 11187
1370.6 11244
1372.27 11406
1373.93 11305
1375.6 11308
1377.26 11367
1378.92 11364
1380.58 11221
1382.24 10806
1383.89 10793
1385.55 10358
1387.21 10677
1388.86 10943
1390.52 10840
1392.17 11046
1393.82 11240
1395.47 11179
1397.12 11126
1398.77 11172
1400.42 11056
1402.07 10944
1403.71 11091
1405.36 10864
1407 10593
1408.64 10816
1410.28 10780
1411.93 11070
1413.57 10881
1415.2 11070
1416.84 11101
1418.48 10781
1420.11 11133
1421.75 10987
1423.38 10744
1425.02 10735
1426.65 10814
1428.28 10898
1429.91 10791
1431.54 10957
1433.17 10783
1434.79 10884
1436.42 10909
1438.04 10994
1439.67 10887
1441.29 10846
1442.91 10845
1444.53 10655
1446.15 10765
1447.77 10575
1449.39 10504
1451.01 10526
1452.62 10498
1454.24 10418
1455.85 10419
1457.47 10244
1459.08 10360
1460.69 10301
1462.3 10416
1463.91 10107
1465.52 10253
1467.13 10417
1468.73 10402
1470.34 10533
1471.94 10619
1473.55 10314
1475.15 10426
1476.75 10289
1478.35 10259
1479.95 10166
1481.55 10248
1483.15 10445
1484.74 10622
1486.34 10430
1487.93 10709
1489.53 10377
1491.12 10607
1492.71 10380
1494.3 10160
1495.89 10039
1497.48 10127
1499.07 10023
1500.66 10065
1502.24 10020
1503.83 10971
1505.41 9911
1506.99 10138
1508.58 10158
1510.16 10049
1511.74 9694
1513.32 10131
1514.9 9920
1516.47 9880
1518.05 9883
1519.63 9817
1521.2 9623
1522.77 9665
1524.35 9536
1525.92 9306
1527.49 9543
1529.06 9394
1530.63 9246
1532.2 9728
1533.76 9549
1535.33 9670
1536.9 10724
1538.46 11629
1540.02 12092
1541.59 11915
1543.15 11177
1544.71 10140
1546.27 9578
1547.83 9224
1549.38 9106
1550.94 8931
1552.5 9248
1554.05 8929
1555.6 8712
1557.16 8568
1558.71 8615
1560.26 8552
1561.81 8586
1563.36 8640
1564.91 8337
1566.46 8398
1568 8257
1569.55 8068
1571.09 7741
1572.64 7967
1574.18 7985
1575.72 8094
1577.26 8417
1578.8 8282
1580.34 8090
1581.88 7579
1583.42 7329
1584.95 7087
1586.49 7416
1588.02 7668
1589.56 7875
1591.09 7819
1592.62 7454
1594.15 7220
1595.68 7108
1597.21 7230
1598.74 7687
1600.27 7641
1601.79 7905
1603.32 7857
1604.84 7868
1606.36 7931
1607.89 7898
1609.41 7878
1610.93 7167
1612.45 6920
1613.97 6175
1615.49 5717
1617 5773
1618.52 6006
1620.03 6493
1621.55 7291
1623.06 7914
1624.58 8194
1626.09 7936
1627.6 7682
1629.11 7338
1630.62 6857
1632.12 6885
1633.63 7181
1635.14 6968
1636.64 6865
1638.15 6839
1639.65 7678
1641.15 7011
1642.66 6992
1644.16 7382
1645.66 7214
1647.16 7013
1648.65 7002
1650.15 7049
1651.65 7209
1653.14 7244
1654.64 7359
1656.13 7388
1657.62 6902
1659.12 6911
1660.61 7161
1662.1 6951
1663.59 7352
1665.08 7616
1666.56 7642
1668.05 7890
1669.53 7770
1671.02 7948
1672.5 8305
1673.99 8332
1675.47 8412
1676.95 8248
1678.43 8104
1679.91 7891
1681.39 8089
1682.87 7821
1684.34 8033
1685.82 7944
1687.29 8051
1688.77 7999
1690.24 8219
1691.71 7879
1693.19 7848
1694.66 7658
1696.13 7991
1697.6 8238
1699.06 8090
1700.53 7836
1702 7605
1703.46 7291
1704.93 6849
1706.39 6912
1707.85 7052
1709.32 7299
1710.78 7327
1712.24 7263
1713.7 6764
1715.16 6552
1716.61 6311
1718.07 6518
1719.53 6622
1720.98 6985
1722.44 7049
1723.89 6926
1725.34 6577
1726.79 6257
1728.24 6282
1729.69 6454
1731.14 6796
1732.59 6726
1734.04 6651
1735.49 6285
1736.93 6281
1738.38 6641
1739.82 6433
1741.26 6459
1742.7 6458
1744.15 6490
1745.59 6583
1747.03 6542
1748.46 6478
1749.9 6308
1751.34 6369
1752.78 6670
1754.21 6657
1755.65 6760
1757.08 6432
1758.51 6211
1759.94 6169
1761.38 6418
1762.81 6565
1764.24 7228
1765.66 7063
1767.09 7226
1768.52 7021
1769.94 6843
1771.37 6308
1772.79 6255
1774.22 6281
1775.64 6566
1777.06 7119
1778.48 7132
1779.9 7335
1781.32 7159
1782.74 6613
1784.16 6446
1785.58 5896
1786.99 5651
1788.41 5947
1789.82 5742
1791.23 5564
1792.65 5492
1794.06 5574
1795.47 5522
1796.88 6001
1798.29 6392
1799.7 6457
1801.11 6673
1802.51 6673
1803.92 6887
1805.32 6937
1806.73 6646
1808.13 6867
1809.53 6539
1810.94 6343
1812.34 5847
1813.74 5636
1815.14 5291
1816.53 5259
1817.93 5614
1819.33 5846
1820.72 5888
1822.12 6398
1823.51 6222
1824.91 6225
1826.3 6353
1827.69 6601
1829.08 6628
1830.47 6736
1831.86 6619
1833.25 6375
1834.64 6198
1836.03 6145
1837.41 5757
1838.8 5614
1840.18 5491
1841.57 5272
1842.95 5430
1844.33 5775
1845.71 6016
1847.09 6138
1848.47 6212
1849.85 6104
1851.23 6206
1852.61 6225
1853.98 6041
1855.36 6317
1856.73 6476
1858.11 6524
1859.48 6599
1860.85 6538
1862.22 6310
1863.59 6180
1864.96 6221
1866.33 6378
1867.7 6220
1869.07 6508
1870.44 6576
1871.8 6742
1873.17 6873
1874.53 6876
1875.9 6697
1877.26 6628
1878.62 6668
1879.98 6294
1881.34 6433
1882.7 6427
1884.06 6229
1885.42 6140
1886.77 5989
1888.13 6035
1889.49 5994
1890.84 6082
1892.19 6164
1893.55 6486
1894.9 6551
1896.25 6521
1897.6 6373
1898.95 6441
1900.3 6352
1901.65 6214
1903 6442
1904.34 6259
1905.69 6147
1907.03 6184
1908.38 6144
1909.72 6149
1911.07 5999
1912.41 6039
1913.75 5912
1915.09 5809
1916.43 6003
1917.77 6002
1919.11 6018
1920.44 6121
1921.78 5902
1923.12 5915
1924.45 5884
1925.78 6017
1927.12 6282
1928.45 6020
1929.78 6051
1931.11 6052
1932.44 6038
1933.77 6232
1935.1 6089
1936.43 6055
1937.76 6192
1939.08 5993
1940.41 5816
1941.73 5687
1943.06 5891
1944.38 5864
1945.7 6143
1947.02 6076
1948.34 6150
1949.66 6131
1950.98 6349
1952.3 6419
1953.62 6025
1954.94 5864
1956.25 5819
1957.57 5594
1958.88 5538
1960.2 5370
1961.51 5105
1962.82 5234
1964.13 5161
1965.45 5032
1966.76 5033
1968.07 5159
1969.37 5196
1970.68 4798
1971.99 4837
1973.29 4751
1974.6 4910
1975.9 4861
1977.21 4964
1978.51 5050
1979.81 4930
1981.12 4833
1982.42 4638
1983.72 4536
1985.02 4473
1986.31 4568
1987.61 4407
1988.91 4493
1990.21 4317
1991.5 4442
1992.8 4660
1994.09 4359
1995.38 4383
1996.68 4134
1997.97 4232
1999.26 4165
2000.55 4254
2001.84 4339
2003.13 4204
2004.42 3916
2005.7 3783
2006.99 3649
2008.27 3586
2009.56 3632
2010.84 3588
2012.13 3763
2013.41 3490
2014.69 3465
2015.97 3828
2017.25 3444
2018.53 3618
2019.81 3736
2021.09 3626
2022.37 3880
2023.64 3673
2024.92 3605
2026.2 3300
2027.47 3405
2028.74 3268
2030.02 3151
2031.29 3127
2032.56 3201
2033.83 3515
2035.1 3192
2036.37 3162
2037.64 3067
2038.91 3166
2040.17 3207
2041.44 3440
2042.7 3949
2043.97 3895
2045.23 3957
2046.5 4031
2047.76 3840
2049.02 3462
2050.28 3262
2051.54 3295
2052.8 3223
2054.06 3353
2055.32 3497
2056.58 3685
2057.83 3702
2059.09 3663
2060.34 3754
2061.6 3750
2062.85 3599
2064.11 3492
2065.36 3306
2066.61 3348
2067.86 3197
2069.11 3182
2070.36 3233
2071.61 3497
2072.86 3489
2074.1 3471
2075.35 3481
2076.59 3359
2077.84 3187
2079.08 3294
2080.33 3206
2081.57 3290
2082.81 3462
2084.05 3542
2085.29 3840
2086.53 3736
2087.77 3884
2089.01 4041
2090.25 4136
2091.48 4481
2092.72 4524
2093.96 4448
2095.19 4702
2096.43 4609
2097.66 4667
2098.89 4352
2100.12 4380
2101.35 4121
2102.58 4082
2103.81 4038
2105.04 3873
2106.27 3848
2107.5 3870
2108.73 3961
2109.95 4069
2111.18 3943
2112.4 3796
2113.63 3852
2114.85 3798
2116.07 4635
2117.29 3935
2118.51 4005
2119.73 4045
2120.95 4048
2122.17 4111
2123.39 3830
2124.61 3975
2125.82 4034
2127.04 4104
2128.26 4043
2129.47 4169
2130.68 3731
2131.9 3629
2133.11 3352
2134.32 3402
2135.53 3339
2136.74 3483
2137.95 3687
2139.16 3961
2140.37 3989
2141.58 3935
2142.78 4050
2143.99 3906
2145.2 3646
2146.4 3278
2147.6 3198
2148.81 3236
2150.01 3224
2151.21 3157
2152.41 3492
2153.61 3593
2154.81 3629
2156.01 4153
2157.21 3938
2158.41 3913
2159.6 4263
2160.8 3930
2162 3915
2163.19 3576
2164.38 3675
2165.58 3335
2166.77 3240
2167.96 3411
2169.15 3549
2170.34 3534
2171.53 3491
2172.72 3592
2173.91 4579
2175.1 3858
2176.29 3669
2177.47 3826
2178.66 3589
2179.84 3614
2181.03 3844
2182.21 3702
2183.39 3960
2184.58 3770
2185.76 3784
2186.94 3853
2188.12 3712
2189.3 3648
2190.48 3800
2191.65 3636
2192.83 3583
2194.01 3528
2195.18 3504
2196.36 3572
2197.53 3768
2198.71 4106
2199.88 4189
2201.05 4188
2202.23 4081
2203.4 4213
2204.57 4037
2205.74 4087
2206.91 3768
2208.07 3571
2209.24 3478
2210.41 3155
2211.57 3418
2212.74 3209
2213.9 3282
2215.07 3381
2216.23 3179
2217.4 3501
2218.56 3706
2219.72 3792
2220.88 4038
2222.04 4090
2223.2 4123
2224.36 4365
2225.52 4321
2226.67 4372
2227.83 4216
2228.99 4119
2230.14 4035
2231.3 3750
2232.45 3729
2233.6 3509
2234.76 3334
2235.91 3282
2237.06 3297
2238.21 3287
2239.36 3322
2240.51 3392
2241.66 3281
2242.8 3499
2243.95 3386
2245.1 3569
2246.24 3477
2247.39 3651
2248.53 3970
2249.68 3888
2250.82 3890
2251.96 4246
2253.1 3978
2254.24 4084
2255.38 3865
2256.52 3829
2257.66 3836
2258.8 4013
2259.94 3928
2261.08 3598
2262.21 3699
2263.35 3493
2264.48 3447
2265.62 3513
2266.75 3673
2267.88 3714
2269.02 3702
2270.15 3903
2271.28 3890
2272.41 3759
2273.54 3505
2274.67 3604
2275.8 3531
2276.92 3528
2278.05 3487
2279.18 3730
2280.3 3765
2281.43 3802
2282.55 3733
2283.67 3663
2284.8 3500
2285.92 3450
2287.04 3569
2288.16 3523
2289.28 3563
2290.4 3533
2291.52 3617
2292.64 3667
2293.76 3927
2294.87 4123
2295.99 4166
2297.1 4118
2298.22 4191
2299.33 4231
2300.45 4150
2301.56 4013
2302.67 3840
2303.78 3550
2304.89 3846
2306 3816
2307.11 3899
2308.22 3932
2309.33 3781
2310.44 3769
2311.55 3536
2312.65 3414
2313.76 3268
2314.86 3382
2315.97 3486
2317.07 3384
2318.17 3392
2319.27 3680
2320.38 3688
2321.48 3612
2322.58 3656
2323.68 3717
2324.78 3769
2325.87 3920
2326.97 3889
2328.07 3812
2329.17 3710
2330.26 3666
2331.36 3701
2332.45 3751
2333.54 3693
2334.64 3845
2335.73 3868
2336.82 3939
2337.91 3899
2339 4099
2340.09 3942
2341.18 3964
2342.27 3874
2343.36 3807
2344.45 3695
2345.53 3785
2346.62 3656
2347.7 3824
2348.79 3606
2349.87 3735
2350.96 3614
2352.04 3744
2353.12 3792
2354.2 3816
2355.28 3831
2356.36 3901
2357.44 4053
2358.52 4081
2359.6 4277
2360.67 4055
2361.75 4255
2362.83 3922
2363.9 3851
2364.98 3843
2366.05 3630
2367.13 3818
2368.2 3940
2369.27 3975
2370.34 3882
2371.41 3884
2372.48 3973
2373.55 3849
2374.62 3803
2375.69 3988
2376.76 3801
2377.83 4050
2378.89 4199
2379.96 3910
2381.02 4021
2382.09 3907
2383.15 3928
2384.21 4051
2385.28 3849
2386.34 4118
2387.4 4063
2388.46 3997
2389.52 3903
2390.58 4055
2391.64 3601
2392.7 3750
2393.75 3738
2394.81 3750
2395.87 4098
2396.92 3883
2397.98 3973
2399.03 3836
2400.08 4269
2401.14 3929
2402.19 4127
2403.24 4215
2404.29 4516
2405.34 4459
2406.39 4486
2407.44 4438
2408.49 4331
2409.54 4357
2410.58 4170
2411.63 4257
2412.68 4192
2413.72 4178
2414.77 4331
2415.81 4436
2416.85 4498
2417.9 4465
2418.94 4257
2419.98 4231
2421.02 4284
2422.06 4308
2423.1 4171
2424.14 4614
2425.18 4391
2426.22 4373
2427.25 5600
2428.29 4427
2429.32 4197
2430.36 4451
2431.39 4135
2432.43 4260
2433.46 4198
2434.49 4155
2435.52 4134
2436.56 4243
2437.59 4305
2438.62 4301
2439.65 4342
2440.67 4209
2441.7 4298
2442.73 4283
2443.76 4503
2444.78 4536
2445.81 4371
2446.83 4344
2447.86 4183
2448.88 4287
2449.9 4201
2450.93 4307
2451.95 4237
2452.97 4382
2453.99 4227
2455.01 4423
2456.03 4154
2457.05 4343
2458.07 4032
2459.08 3991
2460.1 3959
2461.12 4013
2462.13 4163
2463.15 4045
2464.16 3983
2465.17 4170
2466.19 4087
2467.2 3994
2468.21 4090
2469.22 3751
2470.23 3901
2471.24 3890
2472.25 3816
2473.26 3865
2474.27 3918
2475.28 3826
2476.28 3889
2477.29 3908
2478.29 4015
2479.3 3917
2480.3 3952
2481.31 3874
2482.31 4069
2483.31 3955
2484.31 4114
2485.31 4233
2486.31 4141
2487.31 4074
2488.31 4307
2489.31 4073
2490.31 3983
2491.31 3963
2492.3 3904
2493.3 3990
2494.29 4051
2495.29 3846
2496.28 3963
2497.28 3760
2498.27 3856
2499.26 3974
2500.25 3689
2501.25 3726
2502.24 3981
2503.23 4005
2504.21 4120
2505.2 4054
2506.19 4344
2507.18 4194
2508.17 4174
2509.15 4237
2510.14 4132
2511.12 4036
2512.11 4004
2513.09 4268
2514.07 4070
2515.06 3932
2516.04 3908
2517.02 4005
2518 4009
2518.98 4024
2519.96 3900
2520.94 4165
2521.91 3967
2522.89 4239
2523.87 3936
2524.84 3889
2525.82 3874
2526.79 3970
2527.77 3919
2528.74 3881
2529.72 4207
2530.69 4112
2531.66 3764
2532.63 3914
2533.6 3790
2534.57 3967
2535.54 4193
2536.51 3989
2537.48 3988
2538.45 3944
2539.41 3930
2540.38 3735
2541.34 4078
2542.31 3984
2543.27 4288
2544.24 4101
2545.2 3978
2546.16 3968
2547.13 4113
2548.09 4073
2549.05 4226
2550.01 4284
2550.97 3948
2551.93 4134
2552.88 3986
2553.84 4368
2554.8 4081
2555.76 4025
2556.71 3909
2557.67 4068
2558.62 4225
2559.58 3891
2560.53 3970
2561.48 4106
2562.43 3880
2563.38 4031
2564.34 4070
2565.29 3925
2566.24 3820
2567.18 4037
2568.13 3947
2569.08 4257
2570.03 4134
2570.98 3801
2571.92 4003
2572.87 4951
2573.81 3958
2574.76 4032
2575.7 4350
2576.64 4123
2577.58 3891
2578.53 4140
2579.47 4149
2580.41 3977
2581.35 4027
2582.29 4127
2583.23 4017
2584.16 3914
2585.1 3938
2586.04 3894
2586.97 4046
2587.91 3807
2588.84 3904
2589.78 3965
2590.71 3893
2591.64 3860
2592.58 4219
2593.51 3908
2594.44 3886
2595.37 4203
2596.3 3952
2597.23 4007
2598.16 4156
2599.09 4113
2600.02 4079
2600.94 3932
2601.87 4018
2602.8 4849
2603.72 4106
2604.64 4030
2605.57 3929
2606.49 4024
2607.41 3963
2608.34 4008
2609.26 4053
2610.18 3850
2611.1 3852
2612.02 3790
2612.94 3896
2613.86 4082
2614.78 4077
2615.69 4068
2616.61 4085
2617.53 3892
2618.44 3824
2619.36 4018
2620.27 3964
2621.18 4015
2622.1 3964
2623.01 3896
2623.92 4032
2624.83 3997
2625.74 3926
2626.65 3989
2627.56 3904
2628.47 3888
2629.38 3930
2630.29 4028
2631.19 3899
2632.1 4116
2633 3913
2633.91 3992
2634.81 3917
2635.72 4038
2636.62 3957
2637.52 3935
2638.43 3845
2639.33 4083
2640.23 4260
2641.13 3890
2642.03 4054
2642.93 4027
2643.83 4074
2644.72 3945
2645.62 4028
2646.52 4053
2647.41 4063
2648.31 3925
2649.2 4047
2650.1 4044
2650.99 3914
2651.88 4098
2652.78 4791
2653.67 3898
2654.56 4017
2655.45 3865
2656.34 4049
2657.23 3983
2658.12 4044
2659.01 3899
2659.89 3851
2660.78 3998
2661.67 4143
2662.55 3772
2663.44 3899
2664.32 3998
2665.21 3780
2666.09 3698
2666.97 4292
2667.85 3823
2668.74 3912
2669.62 3900
2670.5 3729
2671.38 3816
2672.26 3771
2673.13 3772
2674.01 3733
2674.89 3871
2675.77 3817
2676.64 3795
2677.52 3765
2678.39 3799
2679.27 3779
2680.14 3838
2681.01 3923
2681.88 4055
2682.76 3719
2683.63 3831
2684.5 4084
2685.37 3839
2686.24 3918
2687.11 3739
2687.97 3798
2688.84 3897
2689.71 3863
2690.57 3765
2691.44 3746
2692.3 3777
2693.17 3778
2694.03 3674
2694.9 3690
2695.76 3668
2696.62 3794
2697.48 3796
2698.34 3740
2699.2 3692
2700.06 3728
2700.92 3988
2701.78 3725
2702.64 3784
2703.5 3644
2704.35 3801
2705.21 3708
2706.06 3807
2706.92 3769
2707.77 3749
2708.63 3623
2709.48 3708
2710.33 3771
2711.18 3599
2712.03 3634
2712.89 3726
2713.73 3761
2714.58 3651
2715.43 3939
2716.28 3788
2717.13 3548
2717.98 3886
2718.82 3587
2719.67 3639
2720.51 3837
2721.36 3720
2722.2 3760
2723.04 3519
2723.89 3791
2724.73 3947
2725.57 3657
2726.41 3728
2727.25 3687
2728.09 3651
2728.93 3630
2729.77 3711
2730.61 3576
2731.44 3594
2732.28 3699
2733.12 3737
2733.95 3783
2734.79 3625
2735.62 3645
2736.45 3631
2737.29 3662
2738.12 3506
2738.95 3690
2739.78 4046
2740.61 3438
2741.44 3636
2742.27 3541
2743.1 3781
2743.93 3660
2744.76 3657
2745.58 3861
2746.41 3594
2747.24 3714
2748.06 3885
2748.89 3690
2749.71 3823
2750.53 3561
2751.36 3709
2752.18 3662
2753 3649
2753.82 3539
2754.64 3566
2755.46 3519
2756.28 3593
2757.1 3574
2757.91 3642
2758.73 3424
2759.55 3639
2760.36 3603
2761.18 3457
2761.99 3832
2762.81 4293
2763.62 3559
2764.44 3703
2765.25 3407
2766.06 3637
2766.87 3622
2767.68 3562
2768.49 3675
2769.3 3795
2770.11 3474
2770.92 3633
2771.72 3617
2772.53 3495
2773.34 3655
2774.14 3557
2774.95 3418
2775.75 3551
2776.56 3583
2777.36 3487
2778.16 3402
2778.96 3556
2779.77 3535
2780.57 3466
2781.37 3686
2782.17 3428
2782.97 3584
2783.76 3514
2784.56 3524
2785.36 3496
2786.16 3332
2786.95 3409
2787.75 3489
2788.54 3360
2789.34 3353
2790.13 3584
2790.92 3530
2791.71 3371
2792.51 3368
2793.3 3234
2794.09 3325
2794.88 3429
2795.67 3298
2796.45 3349
2797.24 3409
2798.03 3471
2798.82 3406
2799.6 3573
2800.39 3470
2801.17 3435
2801.96 3526
2802.74 3305
2803.52 3334
2804.31 3509
2805.09 3270
2805.87 3393
2806.65 3299
2807.43 3436
2808.21 3538
2808.99 3505
2809.77 3427
2810.55 3307
2811.32 3393
2812.1 3528
2812.87 3430
2813.65 3303
2814.42 3242
2815.2 3311
2815.97 3429
2816.74 3476
2817.52 3267
2818.29 3300
2819.06 3406
2819.83 3462
2820.6 3284
2821.37 3431
2822.14 3456
2822.9 3385
2823.67 3557
2824.44 3413
2825.2 3439
2825.97 3377
2826.73 3266
2827.5 3282
2828.26 3379
2829.02 3286
2829.79 3242
2830.55 3349
2831.31 3397
2832.07 3279
2832.83 3605
2833.59 3304
2834.35 3415
2835.11 3259
2835.86 3323
2836.62 3435
2837.38 3348
2838.13 3286
2838.89 3446
2839.64 3359
2840.39 3366
2841.15 3233
2841.9 3285
2842.65 3200
2843.4 3439
2844.15 3285
2844.9 3298
2845.65 3698
2846.4 3416
2847.15 3546
2847.9 3343
2848.65 3365
2849.39 3312
2850.14 3621
2850.88 3357
2851.63 3306
2852.37 3478
2853.11 3369
2853.86 3314
2854.6 3346
2855.34 3321
2856.08 3385
2856.82 3435
2857.56 3372
2858.3 3277
2859.04 3582
2859.78 3410
2860.51 3307
2861.25 3497
2861.98 3270
2862.72 3501
2863.45 3412
2864.19 3539
2864.92 3266
2865.65 3449
2866.39 3335
2867.12 3408
2867.85 3478
2868.58 3329
2869.31 3362
2870.04 3515
2870.77 3692
2871.49 3556
2872.22 3798
2872.95 4225
2873.67 4934
2874.4 5708
2875.12 5665
2875.85 6141
2876.57 6694
2877.29 6604
2878.02 6500
2878.74 5986
2879.46 5594
2880.18 5577
2880.9 4768
2881.62 4489
2882.34 4333
2883.05 3857
2883.77 3911
2884.49 3725
2885.2 3810
2885.92 3654
2886.63 3519
2887.35 3631
2888.06 3534
2888.77 3476
2889.49 3200
2890.2 3275
2890.91 3378
2891.62 3405
2892.33 3504
2893.04 3572
2893.75 3271
2894.45 3365
2895.16 3243
2895.87 3420
2896.57 3264
2897.28 3234
2897.98 3206
2898.69 3231
2899.39 3232
2900.09 3228
2900.8 3337
2901.5 3280
2902.2 3218
2902.9 4116
2903.6 3205
2904.3 3278
2904.99 3284
