scanname 扫描047
timestamp 8/4/2000 20:51
ccdbias 1705.09
ccdgain 2.46132
sigmaread 11.4449
laserwavenum -0.379069
wavenumcorrection -0.651974
scancount 1
totalexposurems 1000
singleexposurems 1000
measurementstate Unknown
scanmode Identification
snr 19.6489 19.6489 19.6489
replacelist 0
peaks 33
320.324 0.422228 0 0.183477 2.07045e-05
402.137 0.445712 0 0.529594 0.00016945
446.371 0.483729 0 1.52863 0.000290762
575.725 0.368399 0 0.400712 1.70595e-05
580.164 0.362496 0 1.22502 0.00016524
591.866 0.363066 0 0.671862 2.93624e-05
610.69 0.397286 0 0.244954 0.000154276
635.756 0.476241 0 14.2005 0.00197615
706.148 0.407365 0 13.733 0.0019205
734.048 0.328441 0 4.49831 0.000700727
755.311 0.26245 0 0.205181 2.54851e-05
767.05 0.264197 0 0.117558 1.25216e-05
817.961 0.27951 0 0.434145 0.000190093
829.536 0.288687 0 1.47784 0.000337628
888.711 0.47323 0 16.6765 0.00280813
920.383 0.254793 0 2.89205 0.000555631
936.165 0.235348 0 0.624747 0.000142012
1006.79 0.232419 0 1.75831 0.000413103
1082.82 0.205089 0 1.06702 0.000325875
1112.27 0.352723 0 9.64059 0.00193303
1147.19 0.210832 0 0.733893 0.000291865
1180.13 0.31528 0 8.62099 0.00182456
1237.81 0.327175 0 0.579678 0.000331983
1293.35 0.212494 0 0.22668 0.000137028
1309.83 0.210671 0 0.98251 0.000396766
1387.01 0.176975 0 0.645142 0.000208317
1419.68 0.178709 0 0.150191 4.07919e-05
1446.89 0.218316 0 1.2419 0.000523026
1465.05 0.215146 0 0.975072 0.000469368
1510.56 0.163807 0 0.11771 6.08262e-05
1603.57 0.357681 0 4.61579 0.00175132
1654.29 0.144178 0 0.0895945 2.4904e-05
1774.33 0.138029 0 0.277196 0.000140185
finalresult Mixture 2A13503	0.952237
A16798	0.0338086
spectrum 2048
-91.4048 0.0225843
-88.8068 0.0242015
-86.2104 0.282069
-83.6159 0.306082
-81.0229 0.275119
-78.4318 0.329119
-75.8423 0.33127
-73.2544 0.370258
-70.6684 0.371117
-68.084 0.329108
-65.5013 0.286644
-62.9203 0.39647
-60.3411 0.333747
-57.7634 0.347426
-55.1875 0.385643
-52.6133 0.426246
-50.0408 0.45504
-47.4701 0.4429
-44.9009 0.471652
-42.3335 0.47322
-39.7677 0.484073
-37.2036 0.498269
-34.6413 0.49753
-32.0805 0.534675
-29.5215 0.518698
-26.9641 0.524556
-24.4086 0.553437
-21.8546 0.565449
-19.3022 0.606276
-16.7516 0.629177
-14.2026 0.660529
-11.6554 0.730131
-9.10979 0.785229
-6.56594 0.429779
-4.02366 0.163428
-1.483 0.13309
1.05584 0.13364
3.59318 0.134257
6.12868 0.143393
8.66262 0.370263
11.1949 0.338105
13.7255 0.395819
16.2545 0.467443
18.7817 0.492666
21.3073 0.456396
23.8313 0.45157
26.3536 0.455963
28.8743 0.485845
31.3933 0.514385
33.9106 0.48468
36.4263 0.497932
38.9404 0.510294
41.4527 0.487369
43.9635 0.494125
46.4726 0.494985
48.9801 0.503841
51.4859 0.491329
53.99 0.505541
56.4926 0.525943
58.9935 0.528173
61.4927 0.527782
63.9903 0.52721
66.4863 0.520135
68.9807 0.525488
71.4734 0.515024
73.9644 0.513186
76.4538 0.473487
78.9417 0.453185
81.4278 0.457383
83.9124 0.432389
86.3953 0.389343
88.8766 0.375349
91.3563 0.432837
93.8343 0.432472
96.3108 0.382192
98.7855 0.418866
101.259 0.331296
103.73 0.371547
106.2 0.425791
108.669 0.43192
111.135 0.457218
113.6 0.483522
116.064 0.549423
118.526 0.665993
120.986 0.679286
123.445 0.709162
125.902 0.757862
128.357 0.78024
130.811 0.762265
133.263 0.747114
135.714 0.726872
138.163 0.714753
140.61 0.688038
143.056 0.668482
145.5 0.655378
147.943 0.636428
150.384 0.626501
152.823 0.609328
155.261 0.597156
157.698 0.587236
160.132 0.574889
162.565 0.567438
164.997 0.558554
167.427 0.551928
169.855 0.547378
172.282 0.544914
174.707 0.537894
177.13 0.532502
179.552 0.527972
181.973 0.522047
184.391 0.524909
186.809 0.523504
189.224 0.515672
191.638 0.51706
194.051 0.51183
196.462 0.50674
198.871 0.506761
201.279 0.505391
203.685 0.501925
206.09 0.502234
208.493 0.497877
210.894 0.49775
213.294 0.494481
215.693 0.493501
218.089 0.489485
220.485 0.491773
222.878 0.491126
225.27 0.487051
227.661 0.488297
230.05 0.484962
232.437 0.483106
234.823 0.490128
237.207 0.484075
239.59 0.48416
241.971 0.484815
244.351 0.484522
246.729 0.483673
249.106 0.477823
251.481 0.481591
253.854 0.479254
256.226 0.475709
258.597 0.47619
260.966 0.471627
263.333 0.470097
265.699 0.465631
268.063 0.463145
270.425 0.4619
272.787 0.45925
275.146 0.458726
277.504 0.456716
279.861 0.449763
282.216 0.448713
284.569 0.444672
286.921 0.441601
289.272 0.43663
291.62 0.43294
293.968 0.43601
296.314 0.430105
298.658 0.427974
301.001 0.425757
303.342 0.425863
305.682 0.423602
308.02 0.426483
310.357 0.422616
312.692 0.420108
315.025 0.421685
317.357 0.421866
319.688 0.423447
322.017 0.422918
324.345 0.4219
326.671 0.418998
328.995 0.423839
331.319 0.419907
333.64 0.42027
335.96 0.4142
338.279 0.410919
340.596 0.416705
342.911 0.412164
345.225 0.409908
347.538 0.406878
349.849 0.408399
352.158 0.404913
354.466 0.404323
356.773 0.402771
359.078 0.404698
361.381 0.398871
363.683 0.399949
365.984 0.40206
368.283 0.402861
370.581 0.408933
372.877 0.405691
375.171 0.409119
377.464 0.411557
379.756 0.413133
382.046 0.412583
384.335 0.415113
386.622 0.417643
388.907 0.422536
391.192 0.425884
393.474 0.433075
395.756 0.439197
398.035 0.442379
400.314 0.444601
402.591 0.445192
404.866 0.446603
407.14 0.44037
409.412 0.440188
411.683 0.438319
413.953 0.443491
416.22 0.441901
418.487 0.447862
420.752 0.445922
423.016 0.443369
425.278 0.444366
427.538 0.448231
429.798 0.452929
432.055 0.457984
434.312 0.458033
436.566 0.4693
438.82 0.472528
441.072 0.476751
443.322 0.480725
445.571 0.484878
447.819 0.48035
450.065 0.482607
452.309 0.472716
454.552 0.463468
456.794 0.452601
459.034 0.439643
461.273 0.432818
463.511 0.421287
465.747 0.409729
467.981 0.402847
470.214 0.394791
472.446 0.385536
474.676 0.379838
476.905 0.370669
479.132 0.367069
481.358 0.361753
483.582 0.359599
485.805 0.356573
488.027 0.354964
490.247 0.351526
492.466 0.349378
494.683 0.349451
496.899 0.347828
499.113 0.344161
501.326 0.341602
503.537 0.345419
505.748 0.343238
507.956 0.34054
510.164 0.341092
512.369 0.337616
514.574 0.335925
516.777 0.334086
518.978 0.331462
521.179 0.331726
523.377 0.330464
525.575 0.329915
527.771 0.327994
529.965 0.325883
532.158 0.328241
534.35 0.327211
536.54 0.325518
538.729 0.327434
540.916 0.324701
543.102 0.323491
545.287 0.32552
547.47 0.3248
549.652 0.329861
551.832 0.331407
554.012 0.335849
556.189 0.331628
558.365 0.332166
560.54 0.336778
562.714 0.335563
564.886 0.339815
567.056 0.343385
569.225 0.341226
571.393 0.350011
573.56 0.357491
575.725 0.360072
577.888 0.361784
580.051 0.361237
582.212 0.360666
584.371 0.358093
586.529 0.357771
588.686 0.360902
590.841 0.362099
592.995 0.366619
595.148 0.372149
597.299 0.377584
599.449 0.380908
601.597 0.383658
603.744 0.390755
605.89 0.393978
608.034 0.397813
610.177 0.394866
612.319 0.396462
614.459 0.395984
616.598 0.391223
618.735 0.386583
620.871 0.379945
623.006 0.379024
625.139 0.377909
627.271 0.38564
629.402 0.40363
631.531 0.430068
633.659 0.46443
635.785 0.481408
637.91 0.471327
640.034 0.439878
642.156 0.392918
644.277 0.352573
646.397 0.326346
648.516 0.313654
650.633 0.304358
652.748 0.298787
654.862 0.297659
656.975 0.294111
659.087 0.292579
661.197 0.291546
663.306 0.290956
665.413 0.286647
667.52 0.286692
669.624 0.28487
671.728 0.282067
673.83 0.27918
675.931 0.279164
678.03 0.277332
680.128 0.275076
682.225 0.274644
684.321 0.274927
686.415 0.274754
688.507 0.274992
690.599 0.276582
692.689 0.27963
694.778 0.285256
696.865 0.294108
698.951 0.31278
701.036 0.349623
703.119 0.38819
705.201 0.408284
707.282 0.40815
709.362 0.38761
711.44 0.351809
713.516 0.325675
715.592 0.30762
717.666 0.291528
719.739 0.294153
721.81 0.288618
723.88 0.294385
725.949 0.300512
728.017 0.307451
730.083 0.317011
732.148 0.325596
734.211 0.330924
736.274 0.323041
738.335 0.315684
740.394 0.299808
742.453 0.279386
744.51 0.270149
746.565 0.268769
748.62 0.266161
750.673 0.262156
752.725 0.260765
754.775 0.262615
756.824 0.262809
758.872 0.263969
760.918 0.261015
762.964 0.260957
765.008 0.259678
767.05 0.259315
769.092 0.258275
771.132 0.256618
773.17 0.252704
775.208 0.25019
777.244 0.250988
779.279 0.249049
781.313 0.247427
783.345 0.246667
785.376 0.245285
787.406 0.245611
789.434 0.245001
791.461 0.243641
793.487 0.239655
795.511 0.239504
797.535 0.238041
799.557 0.237713
801.577 0.242408
803.597 0.244071
805.615 0.250825
807.632 0.260065
809.647 0.267225
811.662 0.270523
813.675 0.275011
815.686 0.28139
817.697 0.27859
819.706 0.278285
821.714 0.277119
823.721 0.281354
825.726 0.284179
827.73 0.286016
829.733 0.290252
831.735 0.28745
833.735 0.281846
835.734 0.275474
837.732 0.266345
839.728 0.259469
841.723 0.252176
843.717 0.252643
845.71 0.244335
847.701 0.245844
849.692 0.241386
851.681 0.241042
853.668 0.238913
855.655 0.241591
857.64 0.240122
859.624 0.239411
861.606 0.237564
863.588 0.238764
865.568 0.236613
867.547 0.237736
869.524 0.239077
871.501 0.244681
873.476 0.253925
875.45 0.267068
877.422 0.282875
879.394 0.316884
881.364 0.350154
883.333 0.392892
885.301 0.439045
887.267 0.466103
889.232 0.475571
891.196 0.456411
893.159 0.414811
895.12 0.359037
897.08 0.308569
899.039 0.275546
900.997 0.251312
902.954 0.235916
904.909 0.230305
906.863 0.228524
908.816 0.22313
910.767 0.225598
912.718 0.234299
914.667 0.238528
916.615 0.243733
918.561 0.252623
920.507 0.25597
922.451 0.254247
924.394 0.244487
926.336 0.23506
928.276 0.229822
930.216 0.230344
932.154 0.23152
934.091 0.23609
936.026 0.236399
937.961 0.23556
939.894 0.233339
941.826 0.227858
943.757 0.227695
945.686 0.223355
947.615 0.220711
949.542 0.214833
951.468 0.211788
953.392 0.206531
955.316 0.203209
957.238 0.204589
959.159 0.202797
961.079 0.201982
962.998 0.201267
964.915 0.200098
966.832 0.201125
968.747 0.201567
970.661 0.200752
972.573 0.202061
974.485 0.196226
976.395 0.200372
978.304 0.1987
980.212 0.196486
982.119 0.197185
984.024 0.195363
985.928 0.20032
987.831 0.198323
989.733 0.20055
991.634 0.201647
993.533 0.20937
995.432 0.210797
997.329 0.212634
999.225 0.215623
1001.12 0.221107
1003.01 0.226461
1004.9 0.230459
1006.79 0.233907
1008.68 0.230079
1010.57 0.226062
1012.46 0.219478
1014.35 0.208792
1016.23 0.209645
1018.12 0.209231
1020 0.21003
1021.88 0.207406
1023.76 0.206576
1025.64 0.202115
1027.52 0.199436
1029.4 0.194225
1031.27 0.195944
1033.15 0.192707
1035.02 0.190094
1036.89 0.189833
1038.76 0.188822
1040.63 0.188308
1042.5 0.18916
1044.37 0.185468
1046.24 0.186577
1048.1 0.185007
1049.97 0.184036
1051.83 0.189412
1053.69 0.189436
1055.55 0.18751
1057.41 0.18705
1059.27 0.190099
1061.13 0.191746
1062.98 0.187108
1064.84 0.191933
1066.69 0.185503
1068.54 0.188753
1070.4 0.187655
1072.25 0.189251
1074.1 0.192831
1075.94 0.18991
1077.79 0.198225
1079.64 0.198851
1081.48 0.204083
1083.32 0.206683
1085.17 0.204714
1087.01 0.198019
1088.85 0.202354
1090.69 0.198226
1092.52 0.197641
1094.36 0.198779
1096.19 0.204738
1098.03 0.213218
1099.86 0.221852
1101.69 0.234787
1103.52 0.252012
1105.35 0.276383
1107.18 0.302668
1109.01 0.330704
1110.84 0.34991
1112.66 0.356509
1114.48 0.341576
1116.31 0.316131
1118.13 0.289252
1119.95 0.257497
1121.77 0.236885
1123.59 0.22037
1125.4 0.212155
1127.22 0.20304
1129.04 0.200998
1130.85 0.197131
1132.66 0.191576
1134.47 0.193652
1136.28 0.193828
1138.09 0.195814
1139.9 0.201477
1141.71 0.202714
1143.51 0.205246
1145.32 0.211022
1147.12 0.21082
1148.92 0.209753
1150.73 0.207219
1152.53 0.20246
1154.33 0.20396
1156.12 0.200369
1157.92 0.203293
1159.72 0.203328
1161.51 0.212382
1163.3 0.212369
1165.1 0.220502
1166.89 0.222957
1168.68 0.222514
1170.47 0.227444
1172.26 0.239272
1174.04 0.251531
1175.83 0.275631
1177.61 0.301102
1179.4 0.318322
1181.18 0.31587
1182.96 0.299317
1184.74 0.275782
1186.52 0.256496
1188.3 0.237575
1190.08 0.230513
1191.85 0.225754
1193.63 0.228672
1195.4 0.225591
1197.17 0.222931
1198.94 0.223061
1200.71 0.225698
1202.48 0.218161
1204.25 0.213408
1206.02 0.215388
1207.79 0.215222
1209.55 0.220964
1211.31 0.22311
1213.08 0.229962
1214.84 0.237548
1216.6 0.247414
1218.36 0.259011
1220.12 0.265799
1221.88 0.27599
1223.63 0.284169
1225.39 0.295775
1227.14 0.302132
1228.89 0.310984
1230.65 0.315136
1232.4 0.324679
1234.15 0.324833
1235.89 0.328585
1237.64 0.324983
1239.39 0.330011
1241.13 0.324833
1242.88 0.313987
1244.62 0.313902
1246.36 0.302071
1248.11 0.292485
1249.85 0.279719
1251.59 0.271401
1253.32 0.260478
1255.06 0.248963
1256.8 0.236357
1258.53 0.227692
1260.26 0.225395
1262 0.214912
1263.73 0.210666
1265.46 0.207991
1267.19 0.204067
1268.92 0.201922
1270.64 0.201941
1272.37 0.20155
1274.1 0.19599
1275.82 0.195823
1277.54 0.200443
1279.26 0.198843
1280.99 0.202362
1282.71 0.201424
1284.42 0.204661
1286.14 0.20565
1287.86 0.20906
1289.57 0.20978
1291.29 0.212071
1293 0.211467
1294.72 0.213077
1296.43 0.211315
1298.14 0.208137
1299.85 0.209252
1301.55 0.201888
1303.26 0.204229
1304.97 0.208751
1306.67 0.209158
1308.38 0.205241
1310.08 0.210885
1311.78 0.212253
1313.48 0.203888
1315.18 0.200362
1316.88 0.190203
1318.58 0.187586
1320.28 0.177882
1321.97 0.179763
1323.67 0.178475
1325.36 0.176019
1327.05 0.173411
1328.75 0.177232
1330.44 0.171242
1332.13 0.17258
1333.82 0.172947
1335.5 0.170537
1337.19 0.173281
1338.87 0.174648
1340.56 0.173842
1342.24 0.170221
1343.92 0.170818
1345.61 0.172274
1347.29 0.17215
1348.97 0.171996
1350.64 0.170764
1352.32 0.168402
1354 0.16858
1355.67 0.167802
1357.35 0.170415
1359.02 0.170626
1360.69 0.169112
1362.36 0.169068
1364.03 0.16989
1365.7 0.171203
1367.37 0.171937
1369.04 0.167425
1370.7 0.169804
1372.37 0.167717
1374.03 0.167749
1375.7 0.16801
1377.36 0.168531
1379.02 0.171558
1380.68 0.168048
1382.34 0.172268
1383.99 0.175833
1385.65 0.17709
1387.31 0.178143
1388.96 0.174899
1390.62 0.174147
1392.27 0.16923
1393.92 0.168706
1395.57 0.167377
1397.22 0.169503
1398.87 0.168457
1400.52 0.17008
1402.17 0.170026
1403.81 0.171441
1405.46 0.174248
1407.1 0.172394
1408.74 0.174894
1410.38 0.172264
1412.03 0.177543
1413.67 0.177023
1415.3 0.178427
1416.94 0.179287
1418.58 0.177891
1420.21 0.180343
1421.85 0.176648
1423.48 0.180555
1425.12 0.175487
1426.75 0.174468
1428.38 0.177471
1430.01 0.174602
1431.64 0.178686
1433.27 0.180236
1434.89 0.180613
1436.52 0.184707
1438.14 0.189312
1439.77 0.199341
1441.39 0.20306
1443.01 0.209024
1444.63 0.214814
1446.25 0.222389
1447.87 0.216433
1449.49 0.212047
1451.11 0.210539
1452.72 0.205358
1454.34 0.204784
1455.95 0.204426
1457.57 0.202798
1459.18 0.206905
1460.79 0.210134
1462.4 0.213071
1464.01 0.212621
1465.62 0.214575
1467.23 0.213796
1468.83 0.210113
1470.44 0.199957
1472.04 0.192449
1473.65 0.186984
1475.25 0.181278
1476.85 0.1784
1478.45 0.174049
1480.05 0.16973
1481.65 0.168837
1483.25 0.166414
1484.84 0.164179
1486.44 0.166118
1488.03 0.16117
1489.63 0.161736
1491.22 0.161813
1492.81 0.158967
1494.4 0.159969
1495.99 0.160596
1497.58 0.165059
1499.17 0.161313
1500.76 0.16469
1502.34 0.161756
1503.93 0.161254
1505.51 0.159495
1507.09 0.164851
1508.68 0.165405
1510.26 0.162633
1511.84 0.166824
1513.42 0.162545
1515 0.161683
1516.57 0.159632
1518.15 0.159322
1519.73 0.160436
1521.3 0.155772
1522.87 0.155613
1524.45 0.153984
1526.02 0.154947
1527.59 0.156485
1529.16 0.155226
1530.73 0.150493
1532.3 0.152609
1533.86 0.151312
1535.43 0.154438
1537 0.152509
1538.56 0.155478
1540.12 0.153442
1541.69 0.152153
1543.25 0.149997
1544.81 0.153041
1546.37 0.155218
1547.93 0.155026
1549.48 0.154638
1551.04 0.151968
1552.6 0.154483
1554.15 0.154553
1555.7 0.156139
1557.26 0.159445
1558.81 0.158885
1560.36 0.162501
1561.91 0.163561
1563.46 0.164567
1565.01 0.168275
1566.56 0.169016
1568.1 0.164723
1569.65 0.168149
1571.19 0.166367
1572.74 0.166347
1574.28 0.169342
1575.82 0.170414
1577.36 0.175818
1578.9 0.175889
1580.44 0.178551
1581.98 0.18197
1583.52 0.190311
1585.05 0.201951
1586.59 0.213993
1588.12 0.227044
1589.66 0.238539
1591.19 0.255707
1592.72 0.268207
1594.25 0.281746
1595.78 0.294783
1597.31 0.308709
1598.84 0.319821
1600.37 0.338297
1601.89 0.351319
1603.42 0.359324
1604.94 0.353685
1606.46 0.344892
1607.99 0.322214
1609.51 0.301767
1611.03 0.280529
1612.55 0.260361
1614.07 0.236222
1615.59 0.225818
1617.1 0.21193
1618.62 0.200957
1620.13 0.187738
1621.65 0.186951
1623.16 0.176863
1624.68 0.172145
1626.19 0.170323
1627.7 0.164446
1629.21 0.163941
1630.72 0.15954
1632.22 0.155512
1633.73 0.157949
1635.24 0.155839
1636.74 0.152632
1638.25 0.156171
1639.75 0.152784
1641.25 0.153964
1642.76 0.149709
1644.26 0.14418
1645.76 0.148799
1647.26 0.147265
1648.75 0.145391
1650.25 0.144941
1651.75 0.143365
1653.24 0.142982
1654.74 0.144241
1656.23 0.143395
1657.72 0.147707
1659.22 0.142679
1660.71 0.141784
1662.2 0.141688
1663.69 0.139882
1665.18 0.141787
1666.66 0.139261
1668.15 0.142063
1669.63 0.141952
1671.12 0.136446
1672.6 0.133177
1674.09 0.135559
1675.57 0.131742
1677.05 0.131558
1678.53 0.133058
1680.01 0.12774
1681.49 0.129907
1682.97 0.12926
1684.44 0.124956
1685.92 0.126899
1687.39 0.129082
1688.87 0.125135
1690.34 0.128541
1691.81 0.123378
1693.29 0.126983
1694.76 0.124995
1696.23 0.123999
1697.7 0.127416
1699.16 0.128017
1700.63 0.125562
1702.1 0.12748
1703.56 0.126124
1705.03 0.123836
1706.49 0.126138
1707.95 0.123317
1709.42 0.125921
1710.88 0.123971
1712.34 0.121229
1713.8 0.120549
1715.26 0.122818
1716.71 0.123634
1718.17 0.124983
1719.63 0.123046
1721.08 0.120035
1722.54 0.124482
1723.99 0.122093
1725.44 0.123898
1726.89 0.123231
1728.34 0.122033
1729.79 0.123472
1731.24 0.125021
1732.69 0.123033
1734.14 0.119625
1735.59 0.120109
1737.03 0.118135
1738.48 0.122118
1739.92 0.121758
1741.36 0.120919
1742.8 0.120489
1744.25 0.120874
1745.69 0.116224
1747.13 0.124174
1748.56 0.122402
1750 0.122441
1751.44 0.119159
1752.88 0.121675
1754.31 0.118318
1755.75 0.12066
1757.18 0.127796
1758.61 0.123449
1760.04 0.123224
1761.48 0.123042
1762.91 0.129615
1764.34 0.128951
1765.76 0.132482
1767.19 0.130821
1768.62 0.133711
1770.04 0.131752
1771.47 0.140429
1772.89 0.140581
1774.32 0.137213
1775.74 0.136384
1777.16 0.136797
1778.58 0.132926
1780 0.134701
1781.42 0.131782
1782.84 0.135385
1784.26 0.12913
1785.68 0.127057
1787.09 0.128563
1788.51 0.119516
1789.92 0.11938
1791.33 0.121601
1792.75 0.117826
1794.16 0.116415
1795.57 0.116313
1796.98 0.115661
1798.39 0.118813
1799.8 0.116695
1801.21 0.116712
1802.61 0.11649
1804.02 0.116541
1805.42 0.117507
1806.83 0.113204
1808.23 0.115194
1809.63 0.110082
1811.04 0.113889
1812.44 0.116534
1813.84 0.116072
1815.24 0.117417
1816.63 0.112579
1818.03 0.111118
1819.43 0.112166
1820.82 0.109681
1822.22 0.111638
1823.61 0.109426
1825.01 0.111839
1826.4 0.110968
1827.79 0.110825
1829.18 0.113367
1830.57 0.109779
1831.96 0.108653
1833.35 0.108705
1834.74 0.111258
1836.13 0.109587
1837.51 0.111133
1838.9 0.110306
1840.28 0.11141
1841.67 0.107812
1843.05 0.107639
1844.43 0.103614
1845.81 0.107545
1847.19 0.106242
1848.57 0.104963
1849.95 0.103168
1851.33 0.106244
1852.71 0.107883
1854.08 0.10518
1855.46 0.104632
1856.83 0.102889
1858.21 0.10436
1859.58 0.108296
1860.95 0.103842
1862.32 0.102041
1863.69 0.101795
1865.06 0.0994202
1866.43 0.103843
1867.8 0.101143
1869.17 0.0994622
1870.54 0.102502
1871.9 0.104051
1873.27 0.0999472
1874.63 0.100362
1876 0.101569
1877.36 0.100909
1878.72 0.098973
1880.08 0.101143
1881.44 0.0999836
1882.8 0.0992195
1884.16 0.0968677
1885.52 0.100428
1886.87 0.103119
1888.23 0.0975912
1889.59 0.102008
1890.94 0.0980856
1892.29 0.0993533
1893.65 0.0976589
1895 0.0973753
1896.35 0.0953561
1897.7 0.102239
1899.05 0.100948
1900.4 0.0974245
1901.75 0.0976873
1903.1 0.0977641
1904.44 0.096718
1905.79 0.100381
1907.13 0.0978138
1908.48 0.0964671
1909.82 0.0975
1911.17 0.0981274
1912.51 0.0985544
1913.85 0.0974338
1915.19 0.0997431
1916.53 0.099493
1917.87 0.0959395
1919.21 0.095053
1920.54 0.100172
1921.88 0.0972694
1923.22 0.0990319
1924.55 0.0963725
1925.88 0.0985632
1927.22 0.100251
1928.55 0.0976714
1929.88 0.0995668
1931.21 0.0962327
1932.54 0.0965092
1933.87 0.0970613
1935.2 0.0960453
1936.53 0.0967579
1937.86 0.100476
1939.18 0.0958859
1940.51 0.0950828
1941.83 0.0983262
1943.16 0.0985916
1944.48 0.099485
1945.8 0.0958565
1947.12 0.0958694
1948.44 0.0925626
1949.76 0.0958336
1951.08 0.0952721
1952.4 0.0975645
1953.72 0.0944339
1955.04 0.0939604
1956.35 0.0899858
1957.67 0.0929623
1958.98 0.0957889
1960.3 0.0939019
1961.61 0.093169
1962.92 0.0929542
1964.23 0.0931991
1965.55 0.0936014
1966.86 0.0932175
1968.17 0.0930923
1969.47 0.0901448
1970.78 0.0915455
1972.09 0.0882419
1973.39 0.0916369
1974.7 0.0934119
1976 0.0940094
1977.31 0.0921487
1978.61 0.0935617
1979.91 0.093834
1981.22 0.0934934
1982.52 0.091024
1983.82 0.0935349
1985.12 0.0920119
1986.41 0.0940283
1987.71 0.0929204
1989.01 0.0898455
1990.31 0.0911895
1991.6 0.0905774
1992.9 0.0925842
1994.19 0.0909594
1995.48 0.0884081
1996.78 0.0910621
1998.07 0.0915908
1999.36 0.0895267
2000.65 0.0892825
2001.94 0.0921791
2003.23 0.087686
2004.52 0.0878615
2005.8 0.0891541
2007.09 0.088177
2008.37 0.0885806
2009.66 0.0904149
2010.94 0.0859073
2012.23 0.0887885
2013.51 0.0906262
2014.79 0.0880409
2016.07 0.0907202
2017.35 0.0926932
2018.63 0.0879276
2019.91 0.0849402
2021.19 0.0919463
2022.47 0.0913356
2023.74 0.0919895
2025.02 0.0883942
2026.3 0.0864882
2027.57 0.0854426
2028.84 0.0887385
2030.12 0.0897536
2031.39 0.0870817
2032.66 0.0885284
2033.93 0.0858087
2035.2 0.0879131
2036.47 0.0884354
2037.74 0.0886269
2039.01 0.0869075
2040.27 0.082878
2041.54 0.0823951
2042.8 0.0868623
2044.07 0.0879113
2045.33 0.0881387
2046.6 0.085654
2047.86 0.0861272
2049.12 0.0859092
2050.38 0.0850896
2051.64 0.0869524
2052.9 0.0844873
2054.16 0.0864124
2055.42 0.087139
2056.68 0.0828612
2057.93 0.0859546
2059.19 0.0868096
2060.44 0.0850285
2061.7 0.0846635
2062.95 0.0832741
2064.21 0.0835087
2065.46 0.0836521
2066.71 0.0839176
2067.96 0.088285
2069.21 0.0826095
2070.46 0.0834261
2071.71 0.0841888
2072.96 0.0821548
2074.2 0.082544
2075.45 0.0824338
2076.69 0.0830086
2077.94 0.0834246
2079.18 0.0826025
2080.43 0.0784091
2081.67 0.0812624
2082.91 0.0792068
2084.15 0.0830607
2085.39 0.0810338
2086.63 0.0838732
2087.87 0.0836386
2089.11 0.0836789
2090.35 0.0817059
2091.58 0.0797787
2092.82 0.0851848
2094.06 0.0806609
2095.29 0.081815
2096.53 0.0836936
2097.76 0.080707
2098.99 0.0767628
2100.22 0.0840245
2101.45 0.0799518
2102.68 0.0839018
2103.91 0.079286
2105.14 0.0811185
2106.37 0.0805121
2107.6 0.0816494
2108.83 0.0808855
2110.05 0.0795897
2111.28 0.0841278
2112.5 0.0839785
2113.73 0.08377
2114.95 0.0838624
2116.17 0.0815936
2117.39 0.0795587
2118.61 0.0793013
2119.83 0.0858459
2121.05 0.0800328
2122.27 0.0836049
2123.49 0.0819266
2124.71 0.0809941
2125.92 0.0782518
2127.14 0.0857065
2128.36 0.0832515
2129.57 0.080017
2130.78 0.0788141
2132 0.0762819
2133.21 0.0799411
2134.42 0.079576
2135.63 0.0799431
2136.84 0.0814385
2138.05 0.077556
2139.26 0.0752242
2140.47 0.0840273
2141.68 0.077445
2142.88 0.0815433
2144.09 0.0819647
2145.3 0.0746691
2146.5 0.0797433
2147.7 0.0753022
2148.91 0.0754292
2150.11 0.0816436
2151.31 0.0753298
2152.51 0.0735048
2153.71 0.0805954
2154.91 0.0803066
2156.11 0.0769745
2157.31 0.0777526
2158.51 0.0750199
2159.7 0.0798695
2160.9 0.082112
2162.1 0.0764875
2163.29 0.0758424
2164.48 0.0775733
2165.68 0.0787004
2166.87 0.0782634
2168.06 0.0751706
2169.25 0.0779483
2170.44 0.0768857
2171.63 0.078148
2172.82 0.0767925
2174.01 0.0814507
2175.2 0.079468
2176.39 0.0768874
2177.57 0.0785939
2178.76 0.0811132
2179.94 0.0769219
2181.13 0.0701317
2182.31 0.0787238
2183.49 0.0779424
2184.68 0.0720715
2185.86 0.075002
2187.04 0.0785321
2188.22 0.0754446
2189.4 0.0736649
2190.58 0.0791487
2191.75 0.074431
2192.93 0.0759927
2194.11 0.0733079
2195.28 0.0734277
2196.46 0.073503
2197.63 0.0732069
2198.81 0.0761599
2199.98 0.0742654
2201.15 0.0730519
2202.33 0.0759535
2203.5 0.0752402
2204.67 0.0729211
2205.84 0.0707551
2207.01 0.0738958
2208.17 0.0722215
2209.34 0.073094
2210.51 0.0763792
2211.67 0.0747671
2212.84 0.0753025
2214 0.0737897
2215.17 0.075793
2216.33 0.0769045
2217.5 0.0781092
2218.66 0.0691765
2219.82 0.0755614
2220.98 0.0749351
2222.14 0.0736374
2223.3 0.0773741
2224.46 0.0745187
2225.62 0.077496
2226.77 0.0790365
2227.93 0.0728208
2229.09 0.074598
2230.24 0.0748634
2231.4 0.0756804
2232.55 0.0694691
2233.7 0.0733299
2234.86 0.0735121
2236.01 0.0740929
2237.16 0.0720161
2238.31 0.0698163
2239.46 0.0755643
2240.61 0.0699577
2241.76 0.070551
2242.9 0.0708196
2244.05 0.0719717
2245.2 0.0682046
2246.34 0.0756104
2247.49 0.0730336
2248.63 0.0719929
2249.78 0.0747091
2250.92 0.0718753
2252.06 0.0758263
2253.2 0.0733191
2254.34 0.07118
2255.48 0.0722449
2256.62 0.0698089
2257.76 0.0713456
2258.9 0.0688766
2260.04 0.0735599
2261.18 0.0737223
2262.31 0.0759913
2263.45 0.0739145
2264.58 0.0715947
2265.72 0.0758415
2266.85 0.0721695
2267.98 0.072708
2269.12 0.0722253
2270.25 0.0747667
2271.38 0.0745688
2272.51 0.073561
2273.64 0.073223
2274.77 0.0724753
2275.9 0.0714528
2277.02 0.0708906
2278.15 0.0709347
2279.28 0.0754654
2280.4 0.0682585
2281.53 0.0685535
2282.65 0.0718599
2283.77 0.0728939
2284.9 0.0715045
2286.02 0.0723878
2287.14 0.0688643
2288.26 0.0714864
2289.38 0.0696933
2290.5 0.0713028
2291.62 0.0672872
2292.74 0.0713108
2293.86 0.0684853
2294.97 0.0774698
2296.09 0.0747455
2297.2 0.0703332
2298.32 0.0750498
2299.43 0.072231
2300.55 0.0659572
2301.66 0.0721624
2302.77 0.0669116
2303.88 0.0671801
2304.99 0.0691199
2306.1 0.0671849
2307.21 0.0749493
2308.32 0.0713323
2309.43 0.0696043
2310.54 0.0702985
2311.65 0.0727717
2312.75 0.0709676
2313.86 0.0726475
2314.96 0.0704731
2316.07 0.0751292
2317.17 0.0687258
2318.27 0.0686255
2319.37 0.0699773
2320.48 0.0693253
2321.58 0.0690554
2322.68 0.0729358
2323.78 0.0661163
2324.88 0.0711248
2325.97 0.0658944
2327.07 0.068144
2328.17 0.0692919
2329.27 0.0727287
2330.36 0.0705025
2331.46 0.0705993
2332.55 0.0728581
2333.64 0.0694592
2334.74 0.0688372
2335.83 0.0751337
2336.92 0.070765
2338.01 0.0650027
2339.1 0.0703448
2340.19 0.063542
2341.28 0.0654487
2342.37 0.0695048
2343.46 0.0651138
2344.55 0.0687697
2345.63 0.0687517
2346.72 0.066093
2347.8 0.0720433
2348.89 0.0667743
2349.97 0.0679041
2351.06 0.0664435
2352.14 0.0654285
2353.22 0.0688124
2354.3 0.0705689
2355.38 0.0672389
2356.46 0.0656336
2357.54 0.063398
2358.62 0.0693479
2359.7 0.0675839
2360.77 0.0687496
2361.85 0.070851
2362.93 0.0661588
2364 0.0720002
2365.08 0.0692789
2366.15 0.070146
2367.23 0.0693652
2368.3 0.0674716
2369.37 0.0695515
2370.44 0.0697691
2371.51 0.0681657
2372.58 0.0660138
2373.65 0.0699152
2374.72 0.0658459
2375.79 0.0652649
2376.86 0.0715278
2377.93 0.0698334
2378.99 0.069311
2380.06 0.0756772
2381.12 0.0696687
2382.19 0.0710009
2383.25 0.0697706
2384.31 0.076377
2385.38 0.0712066
2386.44 0.0714981
2387.5 0.0681888
2388.56 0.0675026
2389.62 0.0660497
2390.68 0.0659105
2391.74 0.0693389
2392.8 0.0692172
2393.85 0.0678353
2394.91 0.067544
2395.97 0.0647168
2397.02 0.0614966
2398.08 0.0760573
2399.13 0.0686211
2400.18 0.0689491
2401.24 0.0651235
2402.29 0.0650409
2403.34 0.0685511
2404.39 0.0690802
2405.44 0.0707396
2406.49 0.0704099
2407.54 0.0700636
2408.59 0.0654266
2409.64 0.0729754
2410.68 0.070993
2411.73 0.0686898
2412.78 0.0695618
2413.82 0.0693165
2414.87 0.0687137
2415.91 0.0701379
2416.95 0.073288
2418 0.0695363
2419.04 0.0689862
2420.08 0.070358
2421.12 0.0613377
2422.16 0.0735849
2423.2 0.0735582
2424.24 0.0694705
2425.28 0.0646283
2426.32 0.0722298
2427.35 0.0708753
2428.39 0.0705185
2429.42 0.0638534
2430.46 0.0705921
2431.49 0.0677972
2432.53 0.0651978
2433.56 0.0619579
2434.59 0.0579537
2435.62 0.0649591
2436.66 0.0667708
2437.69 0.0699425
2438.72 0.066748
2439.75 0.0716087
2440.77 0.069387
2441.8 0.0701892
2442.83 0.0680753
2443.86 0.0695372
2444.88 0.0652674
2445.91 0.070301
2446.93 0.0649423
2447.96 0.0732111
2448.98 0.072338
2450 0.0644505
2451.03 0.0701757
2452.05 0.0666661
2453.07 0.0717982
2454.09 0.068951
2455.11 0.0698892
2456.13 0.0664782
2457.15 0.068925
2458.17 0.0714204
2459.18 0.0692328
2460.2 0.0663861
2461.22 0.0712751
2462.23 0.0720748
2463.25 0.0695685
2464.26 0.0737899
2465.27 0.0701976
2466.29 0.0679338
2467.3 0.0692994
2468.31 0.070137
2469.32 0.0631416
2470.33 0.070265
2471.34 0.0678281
2472.35 0.0683002
2473.36 0.0719967
2474.37 0.067987
2475.38 0.0667757
2476.38 0.0618943
2477.39 0.0680558
2478.39 0.0667378
2479.4 0.064479
2480.4 0.0689259
2481.41 0.0630573
2482.41 0.0684304
2483.41 0.0719253
2484.41 0.0696238
2485.41 0.0695676
2486.41 0.0637246
2487.41 0.0636765
2488.41 0.0692482
2489.41 0.0698043
2490.41 0.0655853
2491.41 0.0686062
2492.4 0.0652222
2493.4 0.0655439
2494.39 0.0666192
2495.39 0.0665083
2496.38 0.0616263
2497.38 0.0672859
2498.37 0.0685692
2499.36 0.0638665
2500.35 0.0656898
2501.35 0.0602239
2502.34 0.0661787
2503.33 0.0609068
2504.31 0.0654378
2505.3 0.0673307
2506.29 0.0634496
2507.28 0.0641995
2508.27 0.0581279
2509.25 0.0678057
2510.24 0.072207
2511.22 0.0687549
2512.21 0.0661945
2513.19 0.0568902
2514.17 0.0602433
2515.16 0.0702417
2516.14 0.0652491
2517.12 0.0612027
2518.1 0.0618802
2519.08 0.0601771
2520.06 0.0680126
2521.04 0.0656513
2522.01 0.0644485
2522.99 0.0631492
2523.97 0.0625777
2524.94 0.0657882
2525.92 0.0624821
2526.89 0.0678928
2527.87 0.0709051
2528.84 0.0633188
2529.82 0.0642101
2530.79 0.0627303
2531.76 0.070374
2532.73 0.0641289
2533.7 0.0690958
2534.67 0.0762316
2535.64 0.0600196
2536.61 0.0684002
2537.58 0.0625846
2538.55 0.0590289
2539.51 0.0626767
2540.48 0.0695446
2541.44 0.0647965
2542.41 0.0617589
2543.37 0.0710994
2544.34 0.0687564
2545.3 0.0640854
2546.26 0.0612951
2547.23 0.0678561
2548.19 0.0586336
2549.15 0.0636241
2550.11 0.068498
2551.07 0.0678198
2552.03 0.0634773
2552.98 0.0758674
2553.94 0.0652192
2554.9 0.0609991
2555.86 0.060027
2556.81 0.0671715
2557.77 0.0645522
2558.72 0.0575857
2559.68 0.0696002
2560.63 0.062651
2561.58 0.065455
2562.53 0.0730445
2563.48 0.0674802
2564.44 0.0610856
2565.39 0.0579006
2566.34 0.0675428
2567.28 0.0694752
2568.23 0.0684991
2569.18 0.0743295
2570.13 0.0616126
2571.08 0.0706626
2572.02 0.0743431
2572.97 0.0715889
2573.91 0.0726433
2574.86 0.0615
2575.8 0.0688621
2576.74 0.0727735
2577.68 0.0673172
2578.63 0.0657992
2579.57 0.0653175
2580.51 0.0725908
2581.45 0.0679199
2582.39 0.0730583
2583.33 0.0713043
2584.26 0.0632214
2585.2 0.0658512
2586.14 0.0693328
2587.07 0.0581815
2588.01 0.0765226
2588.94 0.0710391
2589.88 0.0660928
2590.81 0.0708643
2591.74 0.0771417
2592.68 0.068506
2593.61 0.0648929
2594.54 0.0623878
2595.47 0.0628897
2596.4 0.0703871
2597.33 0.0686705
2598.26 0.069442
2599.19 0.0697038
2600.12 0.06671
2601.04 0.0649698
2601.97 0.060431
2602.9 0.0744511
2603.82 0.0623538
2604.74 0.0627212
2605.67 0.0700475
2606.59 0.0645186
2607.51 0.0656261
2608.44 0.0638697
2609.36 0.0659193
2610.28 0.0740402
2611.2 0.0575514
2612.12 0.0678831
2613.04 0.0648649
2613.96 0.0664266
2614.88 0.0702079
2615.79 0.0605124
2616.71 0.066273
2617.63 0.0650037
2618.54 0.0669566
2619.46 0.0584592
2620.37 0.0640305
2621.28 0.0677674
2622.2 0.0649577
2623.11 0.0643629
2624.02 0.0545047
2624.93 0.0551591
2625.84 0.0633035
2626.75 0.0640127
2627.66 0.0634347
2628.57 0.0636657
2629.48 0.0612969
2630.39 0.0606328
2631.29 0.0586038
2632.2 0.0627165
2633.1 0.0647298
2634.01 0.0666444
2634.91 0.0650981
2635.82 0.0567946
2636.72 0.0558896
2637.62 0.0551385
2638.53 0.0688682
2639.43 0.0587459
2640.33 0.0595216
2641.23 0.0558227
2642.13 0.064818
2643.03 0.0648167
2643.93 0.0644106
2644.82 0.0650522
2645.72 0.0601592
2646.62 0.0583996
2647.51 0.0632748
2648.41 0.0610138
2649.3 0.0543836
2650.2 0.0562313
2651.09 0.0576969
2651.98 0.0607946
2652.88 0.0637547
2653.77 0.0582285
2654.66 0.0597615
2655.55 0.0522789
2656.44 0.0525764
2657.33 0.06329
2658.22 0.0617809
2659.11 0.0483457
2659.99 0.0652148
2660.88 0.0605005
2661.77 0.0616295
2662.65 0.0600497
2663.54 0.0606644
2664.42 0.064091
2665.31 0.0565983
2666.19 0.0635765
2667.07 0.0607222
2667.95 0.0554668
2668.84 0.0616127
2669.72 0.0598643
2670.6 0.0616496
2671.48 0.0585086
2672.36 0.0671068
2673.23 0.0526836
2674.11 0.0605394
2674.99 0.0664487
2675.87 0.0647493
2676.74 0.0690592
2677.62 0.0669772
2678.49 0.0511101
2679.37 0.0580093
2680.24 0.0568153
2681.11 0.0500814
2681.98 0.0445766
2682.86 0.0647906
2683.73 0.0553651
2684.6 0.066846
2685.47 0.0600932
2686.34 0.0646586
2687.21 0.0577556
2688.07 0.0581658
2688.94 0.0582595
2689.81 0.0670348
2690.67 0.0659596
2691.54 0.0541331
2692.4 0.0510058
2693.27 0.0584085
2694.13 0.0632179
2695 0.0683734
2695.86 0.0588842
2696.72 0.0546514
2697.58 0.0749327
2698.44 0.0600755
2699.3 0.0608335
2700.16 0.0544782
2701.02 0.0573939
2701.88 0.0623458
2702.74 0.0650624
2703.6 0.0561006
2704.45 0.0699237
2705.31 0.0583366
2706.16 0.0623423
2707.02 0.0649094
2707.87 0.0628184
2708.73 0.0685165
2709.58 0.0643355
2710.43 0.0657765
2711.28 0.0733285
2712.13 0.0673738
2712.99 0.0787305
2713.83 0.0653687
2714.68 0.0604365
2715.53 0.0753001
2716.38 0.0742549
2717.23 0.081135
2718.08 0.0761757
2718.92 0.0810516
2719.77 0.0684103
2720.61 0.0715728
2721.46 0.056577
2722.3 0.0639667
2723.14 0.0628105
2723.99 0.0721257
2724.83 0.0589225
2725.67 0.0670882
2726.51 0.0662605
2727.35 0.0686357
2728.19 0.0600164
2729.03 0.0719248
2729.87 0.0547816
2730.71 0.05465
2731.54 0.0701805
2732.38 0.0715235
2733.22 0.0634651
2734.05 0.0557056
2734.89 0.0677478
2735.72 0.063121
2736.55 0.0669367
2737.39 0.0603292
2738.22 0.0667982
2739.05 0.071168
2739.88 0.0531247
2740.71 0.065077
2741.54 0.0597674
2742.37 0.0585304
2743.2 0.0710846
2744.03 0.0626882
2744.86 0.054051
2745.68 0.063178
2746.51 0.0642648
2747.34 0.0593313
2748.16 0.0693655
2748.99 0.0589299
2749.81 0.0572885
2750.63 0.072284
2751.46 0.0641398
2752.28 0.0638198
2753.1 0.0686834
2753.92 0.0688522
2754.74 0.0666802
2755.56 0.0703117
2756.38 0.0766749
2757.2 0.0660196
2758.01 0.0642534
2758.83 0.0622944
2759.65 0.0686446
2760.46 0.0689386
2761.28 0.0665882
2762.09 0.06228
2762.91 0.0538918
2763.72 0.0611256
2764.54 0.0718167
2765.35 0.0688852
2766.16 0.0748144
2766.97 0.0751231
2767.78 0.0733786
2768.59 0.0708817
2769.4 0.0720012
2770.21 0.0645264
2771.02 0.0619195
2771.82 0.0678286
2772.63 0.0665331
2773.44 0.0771686
2774.24 0.0767766
2775.05 0.0522364
2775.85 0.0665553
2776.66 0.0543871
2777.46 0.0635808
2778.26 0.0601158
2779.06 0.066715
2779.87 0.0710063
2780.67 0.0801223
2781.47 0.0628358
2782.27 0.0560764
2783.07 0.0604461
2783.86 0.0518335
2784.66 0.0600146
2785.46 0.0653702
2786.26 0.0616434
2787.05 0.0620631
2787.85 0.0543302
2788.64 0.0665666
2789.44 0.0693998
2790.23 0.0530011
2791.02 0.0608624
2791.81 0.0655818
2792.61 0.0679765
2793.4 0.052818
2794.19 0.0610642
2794.98 0.0619378
2795.77 0.0636646
2796.55 0.0535885
2797.34 0.0581029
2798.13 0.0582137
2798.92 0.0618802
2799.7 0.0616566
2800.49 0.0658836
2801.27 0.0551502
2802.06 0.0541678
2802.84 0.0549068
2803.62 0.060385
2804.41 0.0617833
2805.19 0.0565142
2805.97 0.0588613
2806.75 0.0688813
2807.53 0.0603559
2808.31 0.0639367
2809.09 0.050308
2809.87 0.0579311
2810.65 0.069971
2811.42 0.0579458
2812.2 0.0644064
2812.97 0.0655753
2813.75 0.0700198
2814.52 0.0611698
2815.3 0.0571359
2816.07 0.0668888
2816.84 0.0548613
2817.62 0.0564301
2818.39 0.0454261
2819.16 0.0756818
2819.93 0.0512678
2820.7 0.0496246
2821.47 0.069143
2822.24 0.0542522
2823 0.0508721
2823.77 0.0670068
2824.54 0.0606106
2825.3 0.0568967
2826.07 0.0674614
2826.83 0.0655176
2827.6 0.0568684
2828.36 0.049728
2829.12 0.0530776
2829.89 0.0725359
2830.65 0.0668943
2831.41 0.0654773
2832.17 0.0718922
2832.93 0.0570188
2833.69 0.0679963
2834.45 0.0667063
2835.21 0.0779267
2835.96 0.0733939
2836.72 0.0736874
2837.48 0.0666435
2838.23 0.0646818
2838.99 0.0745112
2839.74 0.0787894
2840.49 0.083398
2841.25 0.0875994
2842 0.0802852
2842.75 0.0710729
2843.5 0.089999
2844.25 0.0787625
2845 0.0952968
2845.75 0.0780243
2846.5 0.0912971
2847.25 0.0822189
2848 0.0923826
2848.75 0.0907601
2849.49 0.101493
2850.24 0.109641
2850.98 0.0884672
2851.73 0.0795567
2852.47 0.10583
2853.21 0.0874917
2853.96 0.0785962
2854.7 0.100029
2855.44 0.0901228
2856.18 0.0938571
2856.92 0.109706
2857.66 0.0948226
2858.4 0.103513
2859.14 0.0858345
2859.88 0.0891913
2860.61 0.117771
2861.35 0.108312
2862.08 0.105498
2862.82 0.097249
2863.55 0.119435
2864.29 0.139259
2865.02 0.122755
2865.75 0.12448
2866.49 0.154652
2867.22 0.135648
2867.95 0.128366
2868.68 0.147019
2869.41 0.164206
2870.14 0.146009
2870.87 0.1495
2871.59 0.163452
2872.32 0.176609
2873.05 0.164993
2873.77 0.154919
2874.5 0.169497
2875.22 0.160667
2875.95 0.167343
2876.67 0.15177
2877.39 0.182431
2878.12 0.15853
2878.84 0.183812
2879.56 0.187449
2880.28 0.165985
2881 0.166893
2881.72 0.162616
2882.44 0.164907
2883.15 0.162465
2883.87 0.155528
2884.59 0.164158
2885.3 0.163966
2886.02 0.159089
2886.73 0.152176
2887.45 0.158553
2888.16 0.167674
2888.87 0.159189
2889.59 0.152926
2890.3 0.157132
2891.01 0.17184
2891.72 0.166868
2892.43 0.166783
2893.14 0.149777
2893.85 0.17886
2894.55 0.181341
2895.26 0.175987
2895.97 0.193313
2896.67 0.187886
2897.38 0.176232
2898.08 0.183922
2898.79 0.180512
2899.49 0.167987
2900.19 0.164642
2900.9 0.17505
2901.6 0.182194
2902.3 0.193013
2903 0.178076
2903.7 0.213578
2904.4 0.190002
2905.09 0.202565
spectrumdark 2048
-91.4048 2277
-88.8068 2284
-86.2104 1997
-83.6159 2080
-81.0229 1947
-78.4318 1914
-75.8423 1914
-73.2544 1979
-70.6684 1916
-68.084 1942
-65.5013 1949
-62.9203 1953
-60.3411 1963
-57.7634 2061
-55.1875 1945
-52.6133 1987
-50.0408 1943
-47.4701 1943
-44.9009 1999
-42.3335 1950
-39.7677 2018
-37.2036 1971
-34.6413 1951
-32.0805 1951
-29.5215 1957
-26.9641 1985
-24.4086 1963
-21.8546 1951
-19.3022 1954
-16.7516 1927
-14.2026 1982
-11.6554 1975
-9.10979 1959
-6.56594 1957
-4.02366 1938
-1.483 1989
1.05584 1987
3.59318 1942
6.12868 1979
8.66262 2049
11.1949 2006
13.7255 1995
16.2545 2013
18.7817 1982
21.3073 1954
23.8313 1956
26.3536 2010
28.8743 1986
31.3933 1928
33.9106 2100
36.4263 2012
38.9404 1996
41.4527 2016
43.9635 1957
46.4726 1952
48.9801 1993
51.4859 1997
53.99 2000
56.4926 1959
58.9935 1960
61.4927 2006
63.9903 1963
66.4863 1961
68.9807 1962
71.4734 2001
73.9644 1992
76.4538 1962
78.9417 2019
81.4278 1929
83.9124 2015
86.3953 2008
88.8766 1960
91.3563 1982
93.8343 1955
96.3108 1939
98.7855 2025
101.259 2072
103.73 2008
106.2 1987
108.669 2011
111.135 1962
113.6 2005
116.064 2060
118.526 2006
120.986 2158
123.445 2169
125.902 2286
128.357 2400
130.811 2664
133.263 3080
135.714 3343
138.163 3817
140.61 4364
143.056 4713
145.5 5017
147.943 5355
150.384 5510
152.823 5480
155.261 5607
157.698 5778
160.132 5790
162.565 5796
164.997 5905
167.427 5822
169.855 5856
172.282 5808
174.707 5832
177.13 5843
179.552 6073
181.973 6253
184.391 6897
186.809 7160
189.224 7694
191.638 8314
194.051 8679
196.462 9058
198.871 9292
201.279 9728
203.685 9860
206.09 9726
208.493 9852
210.894 9821
213.294 9705
215.693 9712
218.089 9784
220.485 9784
222.878 9807
225.27 9986
227.661 9909
230.05 9852
232.437 9813
234.823 9582
237.207 9520
239.59 9531
241.971 9428
244.351 9602
246.729 9692
249.106 9501
251.481 9399
253.854 9388
256.226 9392
258.597 9480
260.966 9503
263.333 9611
265.699 9589
268.063 9636
270.425 9557
272.787 9655
275.146 9459
277.504 9422
279.861 9436
282.216 9255
284.569 9399
286.921 9438
289.272 9528
291.62 9693
293.968 9567
296.314 9715
298.658 9773
301.001 9908
303.342 9606
305.682 9686
308.02 9558
310.357 9470
312.692 9829
315.025 9501
317.357 9677
319.688 9697
322.017 9761
324.345 9863
326.671 9862
328.995 9807
331.319 9935
333.64 10026
335.96 9974
338.279 9968
340.596 9746
342.911 9838
345.225 9765
347.538 9705
349.849 9412
352.158 9541
354.466 9877
356.773 9674
359.078 9726
361.381 9784
363.683 9635
365.984 9519
368.283 9513
370.581 9345
372.877 9389
375.171 9495
377.464 9447
379.756 9543
382.046 9423
384.335 9346
386.622 9211
388.907 9239
391.192 9063
393.474 9294
395.756 9400
398.035 9538
400.314 9719
402.591 9766
404.866 9624
407.14 9416
409.412 9648
411.683 10150
413.953 10293
416.22 10253
418.487 9881
420.752 9545
423.016 9301
425.278 9131
427.538 8987
429.798 8843
432.055 8867
434.312 9115
436.566 8899
438.82 8735
441.072 8514
443.322 8119
445.571 7987
447.819 8274
450.065 8170
452.309 8292
454.552 8227
456.794 8122
459.034 7985
461.273 7944
463.511 7953
465.747 7714
467.981 7553
470.214 7627
472.446 7564
474.676 7559
476.905 7773
479.132 7634
481.358 7831
483.582 7829
485.805 7434
488.027 7095
490.247 6713
492.466 6910
494.683 7355
496.899 7244
499.113 7506
501.326 7631
503.537 7881
505.748 8307
507.956 7920
510.164 7277
512.369 7098
514.574 6894
516.777 7198
518.978 7684
521.179 7771
523.377 7964
525.575 7868
527.771 7848
529.965 8064
532.158 7918
534.35 7881
536.54 7888
538.729 7556
540.916 7544
543.102 7396
545.287 7510
547.47 7981
549.652 8400
551.832 8749
554.012 8756
556.189 8748
558.365 8631
560.54 8360
562.714 8399
564.886 8205
567.056 8229
569.225 8218
571.393 8160
573.56 8030
575.725 8026
577.888 7783
580.051 7457
582.212 7073
584.371 6308
586.529 5752
588.686 5611
590.841 5815
592.995 6299
595.148 6852
597.299 7308
599.449 7778
601.597 7882
603.744 8019
605.89 8028
608.034 7845
610.177 7948
612.319 8012
614.459 8198
616.598 8484
618.735 8438
620.871 8348
623.006 8337
625.139 8021
627.271 7865
629.402 7844
631.531 7701
633.659 7923
635.785 8262
637.91 8290
640.034 8432
642.156 8558
644.277 8530
646.397 8372
648.516 8237
650.633 7949
652.748 7529
654.862 7124
656.975 7237
659.087 7266
661.197 7366
663.306 7378
665.413 7521
667.52 7727
669.624 7917
671.728 7784
673.83 7404
675.931 7251
678.03 7394
680.128 7474
682.225 7396
684.321 7492
686.415 7830
688.507 8045
690.599 8133
692.689 8133
694.778 7756
696.865 7308
698.951 7410
701.036 7386
703.119 7646
705.201 7852
707.282 7969
709.362 7596
711.44 7593
713.516 7524
715.592 7473
717.666 7463
719.739 7132
721.81 7187
723.88 7312
725.949 7487
728.017 7771
730.083 7905
732.148 7698
734.211 7608
736.274 7590
738.335 7319
740.394 7282
742.453 7912
744.51 7477
746.565 7461
748.62 7503
750.673 7640
752.725 7612
754.775 8130
756.824 7799
758.872 7882
760.918 7821
762.964 7821
765.008 7893
767.05 7875
769.092 7901
771.132 7818
773.17 7815
775.208 8150
777.244 7770
779.279 7779
781.313 7868
783.345 7859
785.376 7692
787.406 7873
789.434 7915
791.461 7969
793.487 8010
795.511 7873
797.535 7899
799.557 7698
801.577 7670
803.597 7752
805.615 7915
807.632 7926
809.647 7949
811.662 7885
813.675 7828
815.686 7579
817.697 7713
819.706 7754
821.714 7894
823.721 7877
825.726 7879
827.73 7859
829.733 7825
831.735 7784
833.735 7903
835.734 7902
837.732 7834
839.728 7803
841.723 7848
843.717 7731
845.71 8101
847.701 7760
849.692 7898
851.681 7920
853.668 7987
855.655 7734
857.64 7801
859.624 7765
861.606 7724
863.588 7722
865.568 7865
867.547 7818
869.524 7899
871.501 7932
873.476 7848
875.45 7783
877.422 7896
879.394 7850
881.364 7788
883.333 7688
885.301 7651
887.267 8085
889.232 7504
891.196 7432
893.159 7617
895.12 7694
897.08 7583
899.039 7596
900.997 7565
902.954 7619
904.909 7665
906.863 7731
908.816 7637
910.767 7662
912.718 7622
914.667 7603
916.615 7767
918.561 7678
920.507 7800
922.451 7528
924.394 7582
926.336 7563
928.276 7557
930.216 7465
932.154 7432
934.091 7429
936.026 7459
937.961 7583
939.894 7554
941.826 7489
943.757 7450
945.686 7474
947.615 7578
949.542 7752
951.468 7466
953.392 7536
955.316 7592
957.238 7480
959.159 7529
961.079 7517
962.998 7520
964.915 7425
966.832 7360
968.747 7039
970.661 6814
972.573 6485
974.485 6511
976.395 6760
978.304 7015
980.212 7276
982.119 7310
984.024 7491
985.928 7488
987.831 7499
989.733 7549
991.634 7393
993.533 7130
995.432 7120
997.329 7178
999.225 7151
1001.12 7235
1003.01 7313
1004.9 7364
1006.79 7241
1008.68 7311
1010.57 7259
1012.46 7179
1014.35 7352
1016.23 7351
1018.12 7146
1020 7178
1021.88 7095
1023.76 7005
1025.64 6722
1027.52 6572
1029.4 6148
1031.27 5694
1033.15 5451
1035.02 5404
1036.89 5804
1038.76 6105
1040.63 6445
1042.5 6739
1044.37 6912
1046.24 7017
1048.1 6963
1049.97 6934
1051.83 6830
1053.69 6753
1055.55 6890
1057.41 6934
1059.27 6973
1061.13 6833
1062.98 7042
1064.84 6964
1066.69 7224
1068.54 7050
1070.4 7030
1072.25 6993
1074.1 6965
1075.94 7005
1077.79 6920
1079.64 6945
1081.48 7034
1083.32 7095
1085.17 6911
1087.01 6900
1088.85 6791
1090.69 6856
1092.52 6922
1094.36 6875
1096.19 6901
1098.03 6975
1099.86 6889
1101.69 6880
1103.52 6814
1105.35 6835
1107.18 6914
1109.01 6839
1110.84 6856
1112.66 6777
1114.48 6874
1116.31 7049
1118.13 6843
1119.95 6948
1121.77 7083
1123.59 6844
1125.4 6822
1127.22 6870
1129.04 6696
1130.85 6766
1132.66 6745
1134.47 6828
1136.28 6853
1138.09 6852
1139.9 6792
1141.71 6823
1143.51 6920
1145.32 6770
1147.12 6728
1148.92 6785
1150.73 6938
1152.53 7097
1154.33 6813
1156.12 6929
1157.92 6715
1159.72 6776
1161.51 6635
1163.3 6699
1165.1 6639
1166.89 6783
1168.68 6700
1170.47 6730
1172.26 6646
1174.04 6703
1175.83 6623
1177.61 6552
1179.4 6460
1181.18 6601
1182.96 6575
1184.74 6551
1186.52 6473
1188.3 6464
1190.08 6218
1191.85 5918
1193.63 5506
1195.4 5479
1197.17 5312
1198.94 5520
1200.71 5865
1202.48 6184
1204.25 6339
1206.02 6261
1207.79 6420
1209.55 6363
1211.31 6377
1213.08 6691
1214.84 6442
1216.6 6460
1218.36 6447
1220.12 6414
1221.88 6427
1223.63 6496
1225.39 6344
1227.14 6347
1228.89 6268
1230.65 6206
1232.4 6176
1234.15 6333
1235.89 6299
1237.64 6417
1239.39 6389
1241.13 6352
1242.88 6326
1244.62 6351
1246.36 6307
1248.11 6398
1249.85 6429
1251.59 6340
1253.32 6366
1255.06 6367
1256.8 6284
1258.53 6219
1260.26 6204
1262 6240
1263.73 6102
1265.46 6140
1267.19 6235
1268.92 6157
1270.64 6204
1272.37 6272
1274.1 6252
1275.82 6331
1277.54 6250
1279.26 6228
1280.99 6189
1282.71 6108
1284.42 6159
1286.14 6172
1287.86 6208
1289.57 6271
1291.29 6085
1293 6078
1294.72 6044
1296.43 6124
1298.14 6118
1299.85 6007
1301.55 6132
1303.26 6089
1304.97 6168
1306.67 6141
1308.38 6210
1310.08 6036
1311.78 6011
1313.48 6089
1315.18 5963
1316.88 6044
1318.58 5993
1320.28 6126
1321.97 6067
1323.67 6183
1325.36 6125
1327.05 6131
1328.75 6056
1330.44 6162
1332.13 6151
1333.82 6046
1335.5 6151
1337.19 6092
1338.87 6073
1340.56 6010
1342.24 6048
1343.92 6238
1345.61 6340
1347.29 6495
1348.97 6324
1350.64 6345
1352.32 6200
1354 6092
1355.67 6043
1357.35 6052
1359.02 6079
1360.69 6033
1362.36 6049
1364.03 5855
1365.7 5865
1367.37 5759
1369.04 5843
1370.7 5862
1372.37 5902
1374.03 5947
1375.7 5891
1377.36 5858
1379.02 5872
1380.68 5861
1382.34 5643
1383.99 5511
1385.65 5464
1387.31 5596
1388.96 5695
1390.62 5631
1392.27 5834
1393.92 5896
1395.57 5816
1397.22 5790
1398.87 5839
1400.52 5728
1402.17 5784
1403.81 5813
1405.46 5632
1407.1 5666
1408.74 5713
1410.38 5760
1412.03 5835
1413.67 5780
1415.3 5836
1416.94 5879
1418.58 5713
1420.21 5739
1421.85 5777
1423.48 5565
1425.12 5635
1426.75 5698
1428.38 5686
1430.01 5643
1431.64 5734
1433.27 5655
1434.89 5704
1436.52 5761
1438.14 5722
1439.77 5672
1441.39 5694
1443.01 5681
1444.63 5626
1446.25 5641
1447.87 5656
1449.49 5592
1451.11 5562
1452.72 5456
1454.34 5503
1455.95 5497
1457.57 5412
1459.18 5393
1460.79 5473
1462.4 5442
1464.01 5483
1465.62 5481
1467.23 5463
1468.83 5462
1470.44 5645
1472.04 5486
1473.65 5486
1475.25 5486
1476.85 5468
1478.45 5451
1480.05 5413
1481.65 5461
1483.25 5525
1484.84 5620
1486.44 5511
1488.03 5618
1489.63 5527
1491.22 5510
1492.81 5425
1494.4 5419
1495.99 5408
1497.58 5238
1499.17 5441
1500.76 5362
1502.34 5355
1503.93 5617
1505.51 5376
1507.09 5519
1508.68 5340
1510.26 5290
1511.84 5306
1513.42 5425
1515 5207
1516.57 5329
1518.15 5333
1519.73 5201
1521.3 5171
1522.87 5195
1524.45 5222
1526.02 5115
1527.59 5058
1529.16 4962
1530.73 5054
1532.3 5188
1533.86 5138
1535.43 5049
1537 5153
1538.56 5096
1540.12 5216
1541.69 5161
1543.25 5058
1544.81 5003
1546.37 5005
1547.93 4885
1549.48 4930
1551.04 4912
1552.6 4939
1554.15 4870
1555.7 4818
1557.26 4709
1558.81 4720
1560.36 4674
1561.91 4741
1563.46 4713
1565.01 4614
1566.56 4652
1568.1 4592
1569.65 4519
1571.19 4431
1572.74 4425
1574.28 4433
1575.82 4453
1577.36 4634
1578.9 4566
1580.44 4443
1581.98 4331
1583.52 4162
1585.05 4093
1586.59 4181
1588.12 4271
1589.66 4442
1591.19 4337
1592.72 4346
1594.25 4119
1595.78 4083
1597.31 4105
1598.84 4330
1600.37 4381
1601.89 4387
1603.42 4399
1604.94 4390
1606.46 4412
1607.99 4455
1609.51 4458
1611.03 4102
1612.55 3961
1614.07 3708
1615.59 3467
1617.1 3420
1618.62 3608
1620.13 3899
1621.65 4069
1623.16 4410
1624.68 4513
1626.19 4385
1627.7 4271
1629.21 4175
1630.72 3980
1632.22 4023
1633.73 4099
1635.24 3970
1636.74 4002
1638.25 3949
1639.75 4210
1641.25 4034
1642.76 4072
1644.26 4165
1645.76 4070
1647.26 4025
1648.75 4044
1650.25 4024
1651.75 4098
1653.24 4132
1654.74 4119
1656.23 4221
1657.72 3992
1659.22 3989
1660.71 4068
1662.2 4018
1663.69 4179
1665.18 4244
1666.66 4234
1668.15 4352
1669.63 4356
1671.12 4526
1672.6 4641
1674.09 4625
1675.57 4608
1677.05 4540
1678.53 4444
1680.01 4395
1681.49 4470
1682.97 4425
1684.44 4453
1685.92 4469
1687.39 4494
1688.87 4512
1690.34 4482
1691.81 4434
1693.29 4406
1694.76 4333
1696.23 4460
1697.7 4489
1699.16 4472
1700.63 4396
1702.1 4258
1703.56 4093
1705.03 4047
1706.49 3957
1707.95 4052
1709.42 4137
1710.88 4143
1712.34 4215
1713.8 3938
1715.26 3848
1716.71 3787
1718.17 3783
1719.63 3906
1721.08 4037
1722.54 4077
1723.99 3975
1725.44 3870
1726.89 3792
1728.34 3706
1729.79 3795
1731.24 3894
1732.69 3861
1734.14 3885
1735.59 3697
1737.03 3722
1738.48 3832
1739.92 3719
1741.36 3718
1742.8 3794
1744.25 3800
1745.69 3892
1747.13 3786
1748.56 3860
1750 3689
1751.44 3797
1752.88 3868
1754.31 3829
1755.75 3896
1757.18 3726
1758.61 3715
1760.04 3700
1761.48 3795
1762.91 3760
1764.34 4025
1765.76 4023
1767.19 4117
1768.62 4035
1770.04 4025
1771.47 3747
1772.89 3666
1774.32 3746
1775.74 3819
1777.16 3967
1778.58 3999
1780 4100
1781.42 4060
1782.84 3858
1784.26 3719
1785.68 3594
1787.09 3428
1788.51 3640
1789.92 3484
1791.33 3431
1792.75 3401
1794.16 3392
1795.57 3384
1796.98 3597
1798.39 3755
1799.8 3802
1801.21 3897
1802.61 3845
1804.02 3978
1805.42 3943
1806.83 3905
1808.23 3959
1809.63 3894
1811.04 3681
1812.44 3519
1813.84 3402
1815.24 3258
1816.63 3288
1818.03 3443
1819.43 3490
1820.82 3589
1822.22 3728
1823.61 3781
1825.01 3734
1826.4 3812
1827.79 3859
1829.18 3857
1830.57 3887
1831.96 3909
1833.35 3789
1834.74 3642
1836.13 3651
1837.51 3495
1838.9 3403
1840.28 3311
1841.67 3305
1843.05 3375
1844.43 3514
1845.81 3611
1847.19 3651
1848.57 3731
1849.95 3698
1851.33 3636
1852.71 3663
1854.08 3651
1855.46 3706
1856.83 3800
1858.21 3861
1859.58 3783
1860.95 3855
1862.32 3817
1863.69 3677
1865.06 3703
1866.43 3811
1867.8 3751
1869.17 3874
1870.54 3919
1871.9 3903
1873.27 4010
1874.63 3971
1876 3913
1877.36 3894
1878.72 3862
1880.08 3733
1881.44 3810
1882.8 3770
1884.16 3764
1885.52 3581
1886.87 3590
1888.23 3644
1889.59 3520
1890.94 3573
1892.29 3570
1893.65 3796
1895 3809
1896.35 3776
1897.7 3690
1899.05 3737
1900.4 3696
1901.75 3750
1903.1 3784
1904.44 3696
1905.79 3598
1907.13 3649
1908.48 3668
1909.82 3620
1911.17 3644
1912.51 3605
1913.85 3582
1915.19 3497
1916.53 3524
1917.87 3669
1919.21 3579
1920.54 3609
1921.88 3590
1923.22 3564
1924.55 3575
1925.88 3615
1927.22 3711
1928.55 3637
1929.88 3616
1931.21 3710
1932.54 3615
1933.87 3691
1935.2 3687
1936.53 3560
1937.86 3656
1939.18 3630
1940.51 3530
1941.83 3491
1943.16 3545
1944.48 3529
1945.8 3621
1947.12 3692
1948.44 3659
1949.76 3682
1951.08 3690
1952.4 3711
1953.72 3612
1955.04 3547
1956.35 3516
1957.67 3420
1958.98 3423
1960.3 3256
1961.61 3210
1962.92 3216
1964.23 3249
1965.55 3150
1966.86 3172
1968.17 3253
1969.47 3213
1970.78 3091
1972.09 3092
1973.39 3080
1974.7 3139
1976 3126
1977.31 3186
1978.61 3197
1979.91 3065
1981.22 3066
1982.52 3024
1983.82 2924
1985.12 2898
1986.41 2903
1987.71 2816
1989.01 2957
1990.31 2852
1991.6 2916
1992.9 2990
1994.19 2857
1995.48 2891
1996.78 2792
1998.07 2820
1999.36 2760
2000.65 2770
2001.94 2822
2003.23 2800
2004.52 2693
2005.8 2617
2007.09 2544
2008.37 2480
2009.66 2564
2010.94 2538
2012.23 2566
2013.51 2509
2014.79 2457
2016.07 2541
2017.35 2432
2018.63 2493
2019.91 2602
2021.19 2526
2022.47 2578
2023.74 2565
2025.02 2519
2026.3 2376
2027.57 2417
2028.84 2328
2030.12 2287
2031.39 2290
2032.66 2301
2033.93 2438
2035.2 2245
2036.47 2255
2037.74 2236
2039.01 2246
2040.27 2316
2041.54 2475
2042.8 2635
2044.07 2633
2045.33 2685
2046.6 2669
2047.86 2623
2049.12 2446
2050.38 2347
2051.64 2354
2052.9 2291
2054.16 2326
2055.42 2428
2056.68 2495
2057.93 2549
2059.19 2534
2060.44 2576
2061.7 2525
2062.95 2499
2064.21 2438
2065.46 2352
2066.71 2341
2067.96 2294
2069.21 2315
2070.46 2332
2071.71 2449
2072.96 2443
2074.2 2480
2075.45 2435
2076.69 2405
2077.94 2334
2079.18 2307
2080.43 2344
2081.67 2338
2082.91 2442
2084.15 2456
2085.39 2591
2086.63 2537
2087.87 2616
2089.11 2725
2090.35 2804
2091.58 2895
2092.82 2919
2094.06 2932
2095.29 2990
2096.53 2960
2097.76 2962
2098.99 2887
2100.22 2832
2101.45 2753
2102.68 2705
2103.91 2728
2105.14 2646
2106.37 2665
2107.6 2646
2108.83 2703
2110.05 2721
2111.28 2613
2112.5 2574
2113.73 2576
2114.95 2578
2116.17 2850
2117.39 2670
2118.61 2733
2119.83 2644
2121.05 2701
2122.27 2697
2123.49 2628
2124.71 2742
2125.92 2684
2127.14 2711
2128.36 2679
2129.57 2744
2130.78 2584
2132 2529
2133.21 2386
2134.42 2367
2135.63 2348
2136.84 2476
2138.05 2562
2139.26 2728
2140.47 2682
2141.68 2700
2142.88 2697
2144.09 2573
2145.3 2553
2146.5 2336
2147.7 2364
2148.91 2307
2150.11 2279
2151.31 2326
2152.51 2437
2153.71 2460
2154.91 2487
2156.11 2742
2157.31 2644
2158.51 2687
2159.7 2729
2160.9 2675
2162.1 2645
2163.29 2492
2164.48 2495
2165.68 2382
2166.87 2367
2168.06 2386
2169.25 2429
2170.44 2414
2171.63 2401
2172.82 2503
2174.01 2820
2175.2 2527
2176.39 2572
2177.57 2587
2178.76 2483
2179.94 2516
2181.13 2622
2182.31 2569
2183.49 2607
2184.68 2586
2185.86 2556
2187.04 2576
2188.22 2522
2189.4 2526
2190.58 2496
2191.75 2492
2192.93 2425
2194.11 2448
2195.28 2469
2196.46 2481
2197.63 2613
2198.81 2671
2199.98 2764
2201.15 2771
2202.33 2715
2203.5 2811
2204.67 2743
2205.84 2684
2207.01 2579
2208.17 2523
2209.34 2443
2210.51 2278
2211.67 2421
2212.84 2291
2214 2319
2215.17 2370
2216.33 2288
2217.5 2410
2218.66 2595
2219.82 2563
2220.98 2661
2222.14 2729
2223.3 2744
2224.46 2839
2225.62 2783
2226.77 2790
2227.93 2811
2229.09 2688
2230.24 2634
2231.4 2527
2232.55 2596
2233.7 2482
2234.86 2392
2236.01 2368
2237.16 2318
2238.31 2396
2239.46 2317
2240.61 2420
2241.76 2392
2242.9 2485
2244.05 2413
2245.2 2527
2246.34 2444
2247.49 2529
2248.63 2655
2249.78 2642
2250.92 2667
2252.06 2724
2253.2 2626
2254.34 2723
2255.48 2653
2256.62 2638
2257.76 2620
2258.9 2736
2260.04 2634
2261.18 2499
2262.31 2549
2263.45 2449
2264.58 2396
2265.72 2436
2266.85 2498
2267.98 2522
2269.12 2539
2270.25 2549
2271.38 2580
2272.51 2509
2273.64 2457
2274.77 2447
2275.9 2459
2277.02 2465
2278.15 2494
2279.28 2523
2280.4 2598
2281.53 2611
2282.65 2543
2283.77 2524
2284.9 2446
2286.02 2424
2287.14 2479
2288.26 2435
2289.38 2496
2290.5 2485
2291.62 2525
2292.74 2491
2293.86 2658
2294.97 2700
2296.09 2714
2297.2 2738
2298.32 2746
2299.43 2729
2300.55 2760
2301.66 2620
2302.77 2633
2303.88 2544
2304.99 2610
2306.1 2580
2307.21 2588
2308.32 2619
2309.43 2568
2310.54 2592
2311.65 2452
2312.75 2385
2313.86 2355
2314.96 2376
2316.07 2389
2317.17 2420
2318.27 2418
2319.37 2483
2320.48 2536
2321.58 2527
2322.68 2496
2323.78 2605
2324.88 2586
2325.97 2617
2327.07 2631
2328.17 2561
2329.27 2570
2330.36 2541
2331.46 2514
2332.55 2563
2333.64 2574
2334.74 2661
2335.83 2603
2336.92 2645
2338.01 2690
2339.1 2720
2340.19 2671
2341.28 2678
2342.37 2619
2343.46 2609
2344.55 2561
2345.63 2590
2346.72 2561
2347.8 2554
2348.89 2486
2349.97 2566
2351.06 2500
2352.14 2571
2353.22 2592
2354.3 2576
2355.38 2669
2356.46 2649
2357.54 2714
2358.62 2764
2359.7 2777
2360.77 2707
2361.85 2758
2362.93 2645
2364 2577
2365.08 2579
2366.15 2542
2367.23 2585
2368.3 2622
2369.37 2654
2370.44 2627
2371.51 2608
2372.58 2647
2373.65 2585
2374.72 2593
2375.79 2634
2376.86 2592
2377.93 2662
2378.99 2762
2380.06 2583
2381.12 2697
2382.19 2636
2383.25 2637
2384.31 2636
2385.38 2591
2386.44 2707
2387.5 2656
2388.56 2662
2389.62 2621
2390.68 2682
2391.74 2510
2392.8 2540
2393.85 2544
2394.91 2555
2395.97 2697
2397.02 2680
2398.08 2568
2399.13 2637
2400.18 2738
2401.24 2686
2402.29 2680
2403.34 2773
2404.39 2851
2405.44 2817
2406.49 2857
2407.54 2889
2408.59 2822
2409.64 2755
2410.68 2722
2411.73 2770
2412.78 2715
2413.82 2741
2414.87 2807
2415.91 2833
2416.95 2816
2418 2818
2419.04 2770
2420.08 2771
2421.12 2830
2422.16 2788
2423.2 2700
2424.24 2897
2425.28 2838
2426.32 2761
2427.35 3216
2428.39 2833
2429.42 2787
2430.46 2804
2431.49 2739
2432.53 2789
2433.56 2754
2434.59 2826
2435.62 2717
2436.66 2767
2437.69 2779
2438.72 2793
2439.75 2785
2440.77 2779
2441.8 2803
2442.83 2786
2443.86 2854
2444.88 2906
2445.91 2794
2446.93 2815
2447.96 2753
2448.98 2745
2450 2797
2451.03 2808
2452.05 2791
2453.07 2838
2454.09 2750
2455.11 2783
2456.13 2725
2457.15 2814
2458.17 2653
2459.18 2684
2460.2 2671
2461.22 2667
2462.23 2728
2463.25 2715
2464.26 2625
2465.27 2690
2466.29 2711
2467.3 2697
2468.31 2623
2469.32 2598
2470.33 2600
2471.34 2610
2472.35 2590
2473.36 2574
2474.37 2612
2475.38 2620
2476.38 2633
2477.39 2620
2478.39 2657
2479.4 2620
2480.4 2632
2481.41 2643
2482.41 2661
2483.41 2578
2484.41 2680
2485.41 2673
2486.41 2678
2487.41 2679
2488.41 2681
2489.41 2604
2490.41 2646
2491.41 2565
2492.4 2602
2493.4 2630
2494.39 2624
2495.39 2565
2496.38 2639
2497.38 2529
2498.37 2560
2499.36 2648
2500.35 2534
2501.35 2578
2502.34 2683
2503.33 2708
2504.31 2677
2505.3 2668
2506.29 2808
2507.28 2751
2508.27 2781
2509.25 2747
2510.24 2673
2511.22 2660
2512.21 2691
2513.19 2799
2514.17 2695
2515.16 2598
2516.14 2649
2517.12 2686
2518.1 2663
2519.08 2670
2520.06 2656
2521.04 2687
2522.01 2668
2522.99 2747
2523.97 2648
2524.94 2637
2525.92 2626
2526.89 2628
2527.87 2610
2528.84 2612
2529.82 2691
2530.79 2725
2531.76 2580
2532.73 2621
2533.7 2597
2534.67 2586
2535.64 2754
2536.61 2617
2537.58 2654
2538.55 2638
2539.51 2624
2540.48 2552
2541.44 2679
2542.41 2628
2543.37 2745
2544.34 2648
2545.3 2644
2546.26 2714
2547.23 2652
2548.19 2747
2549.15 2784
2550.11 2753
2551.07 2656
2552.03 2717
2552.98 2606
2553.94 2828
2554.9 2707
2555.86 2641
2556.81 2662
2557.77 2705
2558.72 2748
2559.68 2627
2560.63 2687
2561.58 2693
2562.53 2594
2563.48 2640
2564.44 2670
2565.39 2686
2566.34 2595
2567.28 2632
2568.23 2605
2569.18 2752
2570.13 2713
2571.08 2590
2572.02 2632
2572.97 2962
2573.91 2664
2574.86 2687
2575.8 2740
2576.74 2693
2577.68 2628
2578.63 2732
2579.57 2723
2580.51 2629
2581.45 2626
2582.39 2688
2583.33 2633
2584.26 2626
2585.2 2622
2586.14 2620
2587.07 2693
2588.01 2535
2588.94 2629
2589.88 2601
2590.81 2572
2591.74 2623
2592.68 2690
2593.61 2662
2594.54 2642
2595.47 2729
2596.4 2603
2597.33 2637
2598.26 2685
2599.19 2676
2600.12 2659
2601.04 2618
2601.97 2639
2602.9 2899
2603.82 2652
2604.74 2646
2605.67 2628
2606.59 2666
2607.51 2643
2608.44 2613
2609.36 2673
2610.28 2565
2611.2 2621
2612.12 2599
2613.04 2611
2613.96 2658
2614.88 2619
2615.79 2662
2616.71 2687
2617.63 2626
2618.54 2572
2619.46 2679
2620.37 2616
2621.28 2642
2622.2 2624
2623.11 2580
2624.02 2651
2624.93 2660
2625.84 2604
2626.75 2608
2627.66 2621
2628.57 2587
2629.48 2597
2630.39 2693
2631.29 2589
2632.2 2695
2633.1 2603
2634.01 2635
2634.91 2635
2635.82 2659
2636.72 2682
2637.62 2639
2638.53 2522
2639.43 2674
2640.33 2718
2641.23 2649
2642.13 2634
2643.03 2621
2643.93 2652
2644.82 2605
2645.72 2662
2646.62 2676
2647.51 2634
2648.41 2577
2649.3 2675
2650.2 2636
2651.09 2613
2651.98 2681
2652.88 2870
2653.77 2559
2654.66 2657
2655.55 2606
2656.44 2651
2657.33 2605
2658.22 2618
2659.11 2614
2659.99 2597
2660.88 2635
2661.77 2667
2662.65 2592
2663.54 2585
2664.42 2582
2665.31 2578
2666.19 2530
2667.07 2712
2667.95 2591
2668.84 2609
2669.72 2609
2670.6 2513
2671.48 2569
2672.36 2554
2673.23 2591
2674.11 2539
2674.99 2543
2675.87 2531
2676.74 2545
2677.62 2514
2678.49 2587
2679.37 2563
2680.24 2571
2681.11 2638
2681.98 2669
2682.86 2467
2683.73 2582
2684.6 2642
2685.47 2573
2686.34 2611
2687.21 2527
2688.07 2556
2688.94 2572
2689.81 2535
2690.67 2522
2691.54 2538
2692.4 2541
2693.27 2548
2694.13 2487
2695 2517
2695.86 2488
2696.72 2547
2697.58 2505
2698.44 2530
2699.3 2510
2700.16 2537
2701.02 2578
2701.88 2550
2702.74 2532
2703.6 2512
2704.45 2526
2705.31 2541
2706.16 2529
2707.02 2532
2707.87 2493
2708.73 2469
2709.58 2519
2710.43 2490
2711.28 2453
2712.13 2462
2712.99 2487
2713.83 2539
2714.68 2497
2715.53 2567
2716.38 2537
2717.23 2438
2718.08 2543
2718.92 2423
2719.77 2491
2720.61 2498
2721.46 2557
2722.3 2506
2723.14 2455
2723.99 2538
2724.83 2617
2725.67 2482
2726.51 2512
2727.35 2535
2728.19 2505
2729.03 2450
2729.87 2565
2730.71 2465
2731.54 2475
2732.38 2483
2733.22 2528
2734.05 2531
2734.89 2475
2735.72 2482
2736.55 2439
2737.39 2505
2738.22 2407
2739.05 2471
2739.88 2677
2740.71 2427
2741.54 2438
2742.37 2439
2743.2 2494
2744.03 2450
2744.86 2510
2745.68 2492
2746.51 2455
2747.34 2505
2748.16 2556
2748.99 2529
2749.81 2556
2750.63 2414
2751.46 2471
2752.28 2500
2753.1 2450
2753.92 2468
2754.74 2440
2755.56 2422
2756.38 2425
2757.2 2444
2758.01 2484
2758.83 2441
2759.65 2464
2760.46 2438
2761.28 2413
2762.09 2593
2762.91 2702
2763.72 2472
2764.54 2508
2765.35 2391
2766.16 2419
2766.97 2432
2767.78 2425
2768.59 2492
2769.4 2490
2770.21 2410
2771.02 2485
2771.82 2478
2772.63 2425
2773.44 2436
2774.24 2413
2775.05 2402
2775.85 2417
2776.66 2479
2777.46 2413
2778.26 2398
2779.06 2429
2779.87 2414
2780.67 2359
2781.47 2503
2782.27 2408
2783.07 2466
2783.86 2420
2784.66 2423
2785.46 2394
2786.26 2372
2787.05 2380
2787.85 2412
2788.64 2355
2789.44 2333
2790.23 2429
2791.02 2409
2791.81 2364
2792.61 2335
2793.4 2346
2794.19 2342
2794.98 2406
2795.77 2324
2796.55 2370
2797.34 2392
2798.13 2413
2798.92 2352
2799.7 2393
2800.49 2345
2801.27 2364
2802.06 2434
2802.84 2384
2803.62 2363
2804.41 2402
2805.19 2357
2805.97 2336
2806.75 2317
2807.53 2370
2808.31 2400
2809.09 2431
2809.87 2388
2810.65 2314
2811.42 2352
2812.2 2368
2812.97 2351
2813.75 2309
2814.52 2293
2815.3 2340
2816.07 2360
2816.84 2394
2817.62 2306
2818.39 2387
2819.16 2344
2819.93 2416
2820.7 2376
2821.47 2357
2822.24 2359
2823 2348
2823.77 2408
2824.54 2329
2825.3 2379
2826.07 2378
2826.83 2304
2827.6 2336
2828.36 2370
2829.12 2327
2829.89 2301
2830.65 2329
2831.41 2364
2832.17 2321
2832.93 2467
2833.69 2326
2834.45 2378
2835.21 2312
2835.96 2291
2836.72 2367
2837.48 2352
2838.23 2344
2838.99 2368
2839.74 2339
2840.49 2366
2841.25 2284
2842 2320
2842.75 2313
2843.5 2350
2844.25 2348
2845 2300
2845.75 2433
2846.5 2351
2847.25 2401
2848 2333
2848.75 2365
2849.49 2299
2850.24 2406
2850.98 2355
2851.73 2351
2852.47 2359
2853.21 2362
2853.96 2348
2854.7 2327
2855.44 2326
2856.18 2375
2856.92 2372
2857.66 2321
2858.4 2283
2859.14 2441
2859.88 2382
2860.61 2296
2861.35 2367
2862.08 2307
2862.82 2371
2863.55 2348
2864.29 2377
2865.02 2335
2865.75 2346
2866.49 2311
2867.22 2341
2867.95 2358
2868.68 2330
2869.41 2277
2870.14 2386
2870.87 2402
2871.59 2324
2872.32 2369
2873.05 2410
2873.77 2505
2874.5 2701
2875.22 2541
2875.95 2595
2876.67 2717
2877.39 2575
2878.12 2622
2878.84 2534
2879.56 2539
2880.28 2606
2881 2398
2881.72 2416
2882.44 2380
2883.15 2318
2883.87 2365
2884.59 2324
2885.3 2388
2886.02 2392
2886.73 2353
2887.45 2406
2888.16 2361
2888.87 2372
2889.59 2285
2890.3 2307
2891.01 2285
2891.72 2339
2892.43 2345
2893.14 2431
2893.85 2287
2894.55 2343
2895.26 2251
2895.97 2302
2896.67 2266
2897.38 2295
2898.08 2251
2898.79 2291
2899.49 2320
2900.19 2324
2900.9 2338
2901.6 2338
2902.3 2299
2903 2597
2903.7 2221
2904.4 2277
2905.09 2284
